Raman-Spectrum _CHBr3 _aspol9001.dat
27/09/2021
16:33:42
_CHBr3
_aspol90 Temp: NON
X in nm	Y Signal 	Error Signal				
625,04000	0,14603	0,00023
625,08000	0,14908	0,00046
625,12000	0,14532	0,00048
625,16000	0,14516	0,00034
625,20000	0,14226	0,00053
625,24000	0,14333	0,00032
625,28000	0,15270	0,00041
625,32000	0,14221	0,00055
625,36000	0,15076	0,00041
625,40000	0,14501	0,00046
625,44000	0,15453	0,00032
625,48000	0,15468	0,00051
625,52000	0,15738	0,00047
625,56000	0,16212	0,00027
625,60000	0,16303	0,00023
625,64000	0,18101	0,00032
625,68000	0,17714	0,00034
625,72000	0,18488	0,00034
625,76000	0,18488	0,00047
625,80000	0,18121	0,00047
625,84000	0,19328	0,00036
625,88000	0,19429	0,00027
625,92000	0,21960	0,00044
625,96000	0,22164	0,00031
626,00000	0,24215	0,00048
626,04000	0,24220	0,00031
626,08000	0,25453	0,00041
626,12000	0,28650	0,00059
626,16000	0,27214	0,00039
626,20000	0,30824	0,00042
626,24000	0,30447	0,00034
626,28000	0,31863	0,00056
626,32000	0,31985	0,00033
626,36000	0,31964	0,00040
626,40000	0,32234	0,00034
626,44000	0,32621	0,00031
626,48000	0,34755	0,00036
626,52000	0,34688	0,00064
626,56000	0,33461	0,00040
626,60000	0,35712	0,00036
626,64000	0,35717	0,00039
626,68000	0,34317	0,00041
626,72000	0,35656	0,00031
626,76000	0,33772	0,00031
626,80000	0,33553	0,00069
626,84000	0,32448	0,00071
626,88000	0,31206	0,00034
626,92000	0,31196	0,00031
626,96000	0,30641	0,00040
627,00000	0,28843	0,00032
627,04000	0,29297	0,00036
627,08000	0,27235	0,00047
627,12000	0,26196	0,00039
627,16000	0,23635	0,00040
627,20000	0,22729	0,00058
627,24000	0,22724	0,00020
627,28000	0,21603	0,00031
627,32000	0,19704	0,00047
627,36000	0,19720	0,00050
627,40000	0,17719	0,00041
627,44000	0,18116	0,00033
627,48000	0,16874	0,00036
627,52000	0,16894	0,00033
627,56000	0,16568	0,00027
627,60000	0,15458	0,00048
627,64000	0,15265	0,00046
627,68000	0,15372	0,00041
627,72000	0,15280	0,00034
627,76000	0,15463	0,00038
627,80000	0,15255	0,00042
627,84000	0,15280	0,00052
627,88000	0,14333	0,00039
627,92000	0,15555	0,00051
627,96000	0,15275	0,00041
628,00000	0,14588	0,00039
628,04000	0,14430	0,00027
628,08000	0,14618	0,00047
628,12000	0,14628	0,00050
628,16000	0,15102	0,00027
628,20000	0,14486	0,00046
628,24000	0,14598	0,00044
628,28000	0,15107	0,00044
628,32000	0,14460	0,00025
628,36000	0,14506	0,00025
628,40000	0,14491	0,00027
628,44000	0,14333	0,00032
628,48000	0,14506	0,00034
628,52000	0,15178	0,00061
628,56000	0,14618	0,00041
628,60000	0,14124	0,00036
628,64000	0,13921	0,00042
628,68000	0,14165	0,00040
628,72000	0,14134	0,00042
628,76000	0,13758	0,00046
628,80000	0,13498	0,00025
628,84000	0,13131	0,00047
628,88000	0,13213	0,00039
628,92000	0,13101	0,00038
628,96000	0,13101	0,00044
629,00000	0,13065	0,00048
629,04000	0,13014	0,00036
629,08000	0,12831	0,00041
629,12000	0,12505	0,00036
629,16000	0,13579	0,00044
629,20000	0,12220	0,00025
629,24000	0,12454	0,00027
629,28000	0,12164	0,00041
629,32000	0,12164	0,00047
629,36000	0,12337	0,00031
629,40000	0,12189	0,00053
629,44000	0,11492	0,00059
629,48000	0,12276	0,00025
629,52000	0,11502	0,00047
629,56000	0,11675	0,00050
629,60000	0,11691	0,00036
629,64000	0,11024	0,00023
629,68000	0,11736	0,00039
629,72000	0,11217	0,00020
629,76000	0,11487	0,00053
629,80000	0,11283	0,00048
629,84000	0,11125	0,00046
629,88000	0,11115	0,00038
629,92000	0,11115	0,00044
629,96000	0,11222	0,00036
630,00000	0,10728	0,00031
630,04000	0,10525	0,00031
630,08000	0,11024	0,00039
630,12000	0,10260	0,00023
630,16000	0,10525	0,00044
630,20000	0,10540	0,00041
630,24000	0,10352	0,00055
630,28000	0,10922	0,00046
630,32000	0,11217	0,00050
630,36000	0,11507	0,00057
630,40000	0,11110	0,00056
630,44000	0,09893	0,00038
630,48000	0,09924	0,00034
630,52000	0,10845	0,00047
630,56000	0,11095	0,00052
630,60000	0,10626	0,00055
630,64000	0,10382	0,00034
630,68000	0,10708	0,00044
630,72000	0,11405	0,00034
630,76000	0,11400	0,00057
630,80000	0,10922	0,00032
630,84000	0,10906	0,00051
630,88000	0,10520	0,00027
630,92000	0,10214	0,00042
630,96000	0,10377	0,00040
631,00000	0,10570	0,00042
631,04000	0,10453	0,00044
631,08000	0,10464	0,00023
631,12000	0,10275	0,00033
631,16000	0,11283	0,00036
631,20000	0,10922	0,00039
631,24000	0,11207	0,00034
631,28000	0,11971	0,00047
631,32000	0,11976	0,00033
631,36000	0,11996	0,00027
631,40000	0,12643	0,00038
631,44000	0,13758	0,00040
631,48000	0,13493	0,00025
631,52000	0,13941	0,00040
631,56000	0,13574	0,00027
631,60000	0,14694	0,00042
631,64000	0,15092	0,00042
631,68000	0,15081	0,00040
631,72000	0,14980	0,00040
631,76000	0,15932	0,00047
631,80000	0,15372	0,00025
631,84000	0,16380	0,00044
631,88000	0,16538	0,00033
631,92000	0,17515	0,00047
631,96000	0,17530	0,00038
632,00000	0,16777	0,00039
632,04000	0,16975	0,00036
632,08000	0,17418	0,00034
632,12000	0,16604	0,00025
632,16000	0,17902	0,00036
632,20000	0,17805	0,00044
632,24000	0,17826	0,00034
632,28000	0,18187	0,00040
632,32000	0,18014	0,00033
632,36000	0,17271	0,00040
632,40000	0,17714	0,00052
632,44000	0,17622	0,00034
632,48000	0,16792	0,00033
632,52000	0,16802	0,00052
632,56000	0,16777	0,00032
632,60000	0,16023	0,00044
632,64000	0,16105	0,00038
632,68000	0,16410	0,00044
632,72000	0,15728	0,00034
632,76000	0,14883	0,00038
632,80000	0,15647	0,00020
632,84000	0,15652	0,00036
632,88000	0,15387	0,00046
632,92000	0,15107	0,00031
632,96000	0,13885	0,00020
633,00000	0,14134	0,00042
633,04000	0,13305	0,00038
633,08000	0,13498	0,00025
633,12000	0,13488	0,00052
633,16000	0,13666	0,00048
633,20000	0,13172	0,00044
633,24000	0,13478	0,00038
633,28000	0,12536	0,00040
633,32000	0,13004	0,00058
633,36000	0,12154	0,00038
633,40000	0,11787	0,00039
633,44000	0,11777	0,00050
633,48000	0,11782	0,00042
633,52000	0,11400	0,00047
633,56000	0,11309	0,00034
633,60000	0,11309	0,00025
633,64000	0,10845	0,00034
633,68000	0,10647	0,00025
633,72000	0,10647	0,00041
633,76000	0,11024	0,00039
633,80000	0,10357	0,00042
633,84000	0,10647	0,00041
633,88000	0,10815	0,00027
633,92000	0,10647	0,00047
633,96000	0,10912	0,00031
634,00000	0,10825	0,00042
634,04000	0,10835	0,00033
634,08000	0,10723	0,00042
634,12000	0,10402	0,00031
634,16000	0,11293	0,00056
634,20000	0,10642	0,00047
634,24000	0,10718	0,00046
634,28000	0,11298	0,00034
634,32000	0,11283	0,00036
634,36000	0,11584	0,00051
634,40000	0,10652	0,00040
634,44000	0,10922	0,00051
634,48000	0,10647	0,00034
634,52000	0,10830	0,00044
634,56000	0,10657	0,00050
634,60000	0,10662	0,00048
634,64000	0,10464	0,00032
634,68000	0,10738	0,00034
634,72000	0,09812	0,00031
634,76000	0,10540	0,00025
634,80000	0,11029	0,00042
634,84000	0,10718	0,00064
634,88000	0,10815	0,00048
634,92000	0,10840	0,00034
634,96000	0,10565	0,00051
635,00000	0,11110	0,00033
635,04000	0,10927	0,00053
635,08000	0,10840	0,00047
635,12000	0,10576	0,00038
635,16000	0,11044	0,00034
635,20000	0,11018	0,00048
635,24000	0,10377	0,00046
635,28000	0,10744	0,00041
635,32000	0,10341	0,00025
635,36000	0,10769	0,00039
635,40000	0,11029	0,00036
635,44000	0,10357	0,00048
635,48000	0,10362	0,00023
635,52000	0,10744	0,00047
635,56000	0,10733	0,00046
635,60000	0,10784	0,00033
635,64000	0,10642	0,00052
635,68000	0,10927	0,00042
635,72000	0,11105	0,00034
635,76000	0,10922	0,00032
635,80000	0,10917	0,00058
635,84000	0,10637	0,00034
635,88000	0,10744	0,00034
635,92000	0,10362	0,00039
635,96000	0,11095	0,00052
636,00000	0,10642	0,00034
636,04000	0,10906	0,00033
636,08000	0,10922	0,00051
636,12000	0,10922	0,00039
636,16000	0,10672	0,00048
636,20000	0,10759	0,00050
636,24000	0,10443	0,00034
636,28000	0,10377	0,00056
636,32000	0,11110	0,00040
636,36000	0,10015	0,00055
636,40000	0,09980	0,00041
636,44000	0,11024	0,00046
636,48000	0,10367	0,00036
636,52000	0,11120	0,00036
636,56000	0,10835	0,00040
636,60000	0,10285	0,00025
636,64000	0,11039	0,00033
636,68000	0,11018	0,00042
636,72000	0,11212	0,00033
636,76000	0,10077	0,00034
636,80000	0,10652	0,00033
636,84000	0,11604	0,00034
636,88000	0,10362	0,00056
636,92000	0,11018	0,00048
636,96000	0,11044	0,00041
637,00000	0,11197	0,00034
637,04000	0,10382	0,00052
637,08000	0,10453	0,00038
637,12000	0,10642	0,00025
637,16000	0,10942	0,00057
637,20000	0,10520	0,00042
637,24000	0,10570	0,00042
637,28000	0,10565	0,00046
637,32000	0,11110	0,00040
637,36000	0,10652	0,00033
637,40000	0,11029	0,00036
637,44000	0,10570	0,00042
637,48000	0,11385	0,00080
637,52000	0,10861	0,00044
637,56000	0,10856	0,00033
637,60000	0,10632	0,00023
637,64000	0,10738	0,00047
637,68000	0,10662	0,00048
637,72000	0,11609	0,00052
637,76000	0,10922	0,00032
637,80000	0,11492	0,00038
637,84000	0,11390	0,00038
637,88000	0,11421	0,00044
637,92000	0,11293	0,00060
637,96000	0,11675	0,00031
638,00000	0,11589	0,00048
638,04000	0,12072	0,00041
638,08000	0,13131	0,00041
638,12000	0,12347	0,00032
638,16000	0,12368	0,00041
638,20000	0,13401	0,00056
638,24000	0,13778	0,00036
638,28000	0,14445	0,00038
638,32000	0,14058	0,00041
638,36000	0,14664	0,00034
638,40000	0,15555	0,00046
638,44000	0,15545	0,00031
638,48000	0,15840	0,00034
638,52000	0,18182	0,00034
638,56000	0,17546	0,00027
638,60000	0,18126	0,00041
638,64000	0,19531	0,00048
638,68000	0,19923	0,00038
638,72000	0,18676	0,00040
638,76000	0,18661	0,00046
638,80000	0,19536	0,00055
638,84000	0,20824	0,00041
638,88000	0,20738	0,00050
638,92000	0,21858	0,00038
638,96000	0,21940	0,00025
639,00000	0,21120	0,00033
639,04000	0,21089	0,00051
639,08000	0,22077	0,00042
639,12000	0,21135	0,00034
639,16000	0,21206	0,00032
639,20000	0,20936	0,00033
639,24000	0,20458	0,00033
639,28000	0,19903	0,00034
639,32000	0,19883	0,00032
639,36000	0,20183	0,00027
639,40000	0,20855	0,00036
639,44000	0,19241	0,00034
639,48000	0,18946	0,00052
639,52000	0,18213	0,00050
639,56000	0,17826	0,00025
639,60000	0,18477	0,00052
639,64000	0,18503	0,00048
639,68000	0,18594	0,00033
639,72000	0,17734	0,00038
639,76000	0,16410	0,00038
639,80000	0,17357	0,00047
639,84000	0,17143	0,00044
639,88000	0,15942	0,00025
639,92000	0,15916	0,00036
639,96000	0,16583	0,00020
640,00000	0,16675	0,00051
640,04000	0,15733	0,00034
640,08000	0,16583	0,00038
640,12000	0,16222	0,00058
640,16000	0,16609	0,00046
640,20000	0,15932	0,00061
640,24000	0,15911	0,00046
640,28000	0,16522	0,00039
640,32000	0,16395	0,00041
640,36000	0,16894	0,00040
640,40000	0,17352	0,00033
640,44000	0,18141	0,00038
640,48000	0,19358	0,00040
640,52000	0,19333	0,00020
640,56000	0,20000	0,00040
640,60000	0,20091	0,00058
640,64000	0,22922	0,00033
640,68000	0,24898	0,00034
640,72000	0,25463	0,00034
640,76000	0,26537	0,00046
640,80000	0,26496	0,00062
640,84000	0,29515	0,00050
640,88000	0,32234	0,00061
640,92000	0,32728	0,00040
640,96000	0,36399	0,00047
641,00000	0,40437	0,00046
641,04000	0,43369	0,00033
641,08000	0,48644	0,00036
641,12000	0,48629	0,00047
641,16000	0,51744	0,00038
641,20000	0,58440	0,00056
641,24000	0,63317	0,00036
641,28000	0,68602	0,00058
641,32000	0,72477	0,00051
641,36000	0,75511	0,00025
641,40000	0,75465	0,00040
641,44000	0,80190	0,00041
641,48000	0,83459	0,00040
641,52000	0,85271	0,00072
641,56000	0,86590	0,00031
641,60000	0,86498	0,00025
641,64000	0,87237	0,00036
641,68000	0,87226	0,00040
641,72000	0,88026	0,00025
641,76000	0,86035	0,00033
641,80000	0,84996	0,00027
641,84000	0,83851	0,00047
641,88000	0,84243	0,00042
641,92000	0,82171	0,00025
641,96000	0,76682	0,00052
642,00000	0,76682	0,00025
642,04000	0,77451	0,00033
642,08000	0,71036	0,00033
642,12000	0,68149	0,00056
642,16000	0,64437	0,00027
642,20000	0,59952	0,00056
642,24000	0,52600	0,00047
642,28000	0,52585	0,00033
642,32000	0,47519	0,00020
642,36000	0,42050	0,00034
642,40000	0,37361	0,00033
642,44000	0,33660	0,00041
642,48000	0,30432	0,00050
642,52000	0,26700	0,00048
642,56000	0,23930	0,00034
642,60000	0,23910	0,00042
642,64000	0,22057	0,00046
642,68000	0,20850	0,00046
642,72000	0,19908	0,00047
642,76000	0,18498	0,00038
642,80000	0,16207	0,00031
642,84000	0,16222	0,00042
642,88000	0,16232	0,00046
642,92000	0,16222	0,00058
642,96000	0,15275	0,00047
643,00000	0,15743	0,00033
643,04000	0,15855	0,00036
643,08000	0,14511	0,00041
643,12000	0,15367	0,00051
643,16000	0,15356	0,00042
643,20000	0,15285	0,00033
643,24000	0,15081	0,00060
643,28000	0,14542	0,00053
643,32000	0,14898	0,00053
643,36000	0,15270	0,00057
643,40000	0,14262	0,00034
643,44000	0,15662	0,00058
643,48000	0,15657	0,00046
643,52000	0,15173	0,00041
643,56000	0,14791	0,00039
643,60000	0,14913	0,00034
643,64000	0,14700	0,00038
643,68000	0,14903	0,00031
643,72000	0,15285	0,00033
643,76000	0,15285	0,00033
643,80000	0,14822	0,00041
643,84000	0,14425	0,00031
643,88000	0,14598	0,00055
643,92000	0,14710	0,00025
643,96000	0,15224	0,00047
644,00000	0,15356	0,00048
644,04000	0,15356	0,00036
644,08000	0,14603	0,00051
644,12000	0,14496	0,00050
644,16000	0,13844	0,00047
644,20000	0,14990	0,00048
644,24000	0,15076	0,00034
644,28000	0,14974	0,00025
644,32000	0,14812	0,00041
644,36000	0,14827	0,00033
644,40000	0,14918	0,00025
644,44000	0,14043	0,00040
644,48000	0,14796	0,00027
644,52000	0,13931	0,00036
644,56000	0,14124	0,00053
644,60000	0,14501	0,00033
644,64000	0,14526	0,00059
644,68000	0,13681	0,00044
644,72000	0,13926	0,00064
644,76000	0,14333	0,00032
644,80000	0,14078	0,00039
644,84000	0,13747	0,00041
644,88000	0,14160	0,00041
644,92000	0,14506	0,00034
644,96000	0,14521	0,00023
645,00000	0,14628	0,00031
645,04000	0,14134	0,00042
645,08000	0,14710	0,00025
645,12000	0,13753	0,00041
645,16000	0,14980	0,00046
645,20000	0,13498	0,00034
645,24000	0,13483	0,00033
645,28000	0,13849	0,00041
645,32000	0,13294	0,00041
645,36000	0,13753	0,00041
645,40000	0,14114	0,00060
645,44000	0,13865	0,00044
645,48000	0,14705	0,00023
645,52000	0,14725	0,00046
645,56000	0,13844	0,00041
645,60000	0,13829	0,00053
645,64000	0,13656	0,00040
645,68000	0,14796	0,00027
645,72000	0,14338	0,00053
645,76000	0,13926	0,00046
645,80000	0,14603	0,00046
645,84000	0,14623	0,00040
645,88000	0,14221	0,00068
645,92000	0,13951	0,00057
645,96000	0,14129	0,00046
646,00000	0,14435	0,00051
646,04000	0,13600	0,00052
646,08000	0,14425	0,00055
646,12000	0,14425	0,00031
646,16000	0,13849	0,00041
646,20000	0,14343	0,00020
646,24000	0,13971	0,00036
646,28000	0,14598	0,00055
646,32000	0,14328	0,00036
646,36000	0,14267	0,00046
646,40000	0,14114	0,00102
646,44000	0,14043	0,00040
646,48000	0,14720	0,00041
646,52000	0,13941	0,00040
646,56000	0,14139	0,00044
646,60000	0,14252	0,00065
646,64000	0,14038	0,00050
646,68000	0,14603	0,00046
646,72000	0,14623	0,00040
646,76000	0,14338	0,00042
646,80000	0,13676	0,00042
646,84000	0,14185	0,00062
646,88000	0,14913	0,00034
646,92000	0,13579	0,00055
646,96000	0,13778	0,00048
647,00000	0,13747	0,00047
647,04000	0,14328	0,00015
647,08000	0,14440	0,00036
647,12000	0,14017	0,00050
647,16000	0,14715	0,00025
647,20000	0,14796	0,00058
647,24000	0,14134	0,00036
647,28000	0,14694	0,00027
647,32000	0,14689	0,00039
647,36000	0,14246	0,00046
647,40000	0,14313	0,00041
647,44000	0,14063	0,00033
647,48000	0,15097	0,00056
647,52000	0,14236	0,00042
647,56000	0,14908	0,00040
647,60000	0,14888	0,00048
647,64000	0,14501	0,00023
647,68000	0,14710	0,00041
647,72000	0,14333	0,00039
647,76000	0,14440	0,00042
647,80000	0,14318	0,00033
647,84000	0,14608	0,00047
647,88000	0,14628	0,00038
647,92000	0,14440	0,00027
647,96000	0,14725	0,00051
648,00000	0,14496	0,00044
648,04000	0,14603	0,00065
648,08000	0,14974	0,00041
648,12000	0,14613	0,00041
648,16000	0,15458	0,00048
648,20000	0,15468	0,00051
648,24000	0,14521	0,00040
648,28000	0,15565	0,00031
648,32000	0,14603	0,00046
648,36000	0,14969	0,00025
648,40000	0,15555	0,00056
648,44000	0,14985	0,00044
648,48000	0,14990	0,00027
648,52000	0,13941	0,00051
648,56000	0,13401	0,00040
648,60000	0,14898	0,00036
648,64000	0,15204	0,00058
648,68000	0,14613	0,00034
648,72000	0,14806	0,00033
648,76000	0,15102	0,00027
648,80000	0,15071	0,00041
648,84000	0,13941	0,00040
648,88000	0,14328	0,00036
648,92000	0,14715	0,00047
648,96000	0,14221	0,00031
649,00000	0,14603	0,00040
649,04000	0,14700	0,00020
649,08000	0,14715	0,00052
649,12000	0,14526	0,00038
649,16000	0,14323	0,00031
649,20000	0,14593	0,00036
649,24000	0,14806	0,00051
649,28000	0,14608	0,00034
649,32000	0,14033	0,00042
649,36000	0,14048	0,00041
649,40000	0,14705	0,00040
649,44000	0,14516	0,00047
649,48000	0,14516	0,00047
649,52000	0,14414	0,00047
649,56000	0,15275	0,00041
649,60000	0,15183	0,00033
649,64000	0,14995	0,00046
649,68000	0,15005	0,00031
649,72000	0,14211	0,00041
649,76000	0,14124	0,00036
649,80000	0,14608	0,00041
649,84000	0,14481	0,00036
649,88000	0,14990	0,00036
649,92000	0,15173	0,00034
649,96000	0,15178	0,00034
650,00000	0,14338	0,00027
650,04000	0,15000	0,00036
650,08000	0,14868	0,00047
650,12000	0,14806	0,00033
650,16000	0,14267	0,00023
650,20000	0,14231	0,00046
650,24000	0,14246	0,00046
650,28000	0,14898	0,00058
650,32000	0,14888	0,00027
650,36000	0,15112	0,00046
650,40000	0,15183	0,00033
650,44000	0,14221	0,00038
650,48000	0,14323	0,00044
650,52000	0,14888	0,00042
650,56000	0,14898	0,00036
650,60000	0,14435	0,00032
650,64000	0,14827	0,00033
650,68000	0,14338	0,00027
650,72000	0,14796	0,00042
650,76000	0,14613	0,00052
650,80000	0,14313	0,00034
650,84000	0,14343	0,00031
650,88000	0,14598	0,00031
650,92000	0,14969	0,00041
650,96000	0,14333	0,00039
651,00000	0,14995	0,00032
651,04000	0,14430	0,00053
651,08000	0,13941	0,00040
651,12000	0,14898	0,00036
651,16000	0,14913	0,00041
651,20000	0,14628	0,00038
651,24000	0,14226	0,00042
651,28000	0,14328	0,00042
651,32000	0,14791	0,00046
651,36000	0,14593	0,00036
651,40000	0,14145	0,00046
651,44000	0,14170	0,00038
651,48000	0,14623	0,00033
651,52000	0,14613	0,00052
651,56000	0,14924	0,00041
651,60000	0,14812	0,00041
651,64000	0,14328	0,00066
651,68000	0,13498	0,00034
651,72000	0,13483	0,00023
651,76000	0,14414	0,00041
651,80000	0,15555	0,00032
651,84000	0,13381	0,00040
651,88000	0,14119	0,00038
651,92000	0,14435	0,00039
651,96000	0,14409	0,00061
652,00000	0,13783	0,00020
652,04000	0,13763	0,00020
652,08000	0,13676	0,00027
652,12000	0,14638	0,00051
652,16000	0,13595	0,00041
652,20000	0,14328	0,00036
652,24000	0,15285	0,00051
652,28000	0,14705	0,00033
652,32000	0,14715	0,00041
652,36000	0,15076	0,00034
652,40000	0,14801	0,00050
652,44000	0,14252	0,00047
652,48000	0,14134	0,00048
652,52000	0,14903	0,00059
652,56000	0,14985	0,00038
652,60000	0,14985	0,00031
652,64000	0,14343	0,00038
652,68000	0,15076	0,00041
652,72000	0,14715	0,00034
652,76000	0,14674	0,00046
652,80000	0,14476	0,00050
652,84000	0,14231	0,00051
652,88000	0,14308	0,00034
652,92000	0,14348	0,00040
652,96000	0,15071	0,00041
653,00000	0,14812	0,00047
653,04000	0,15377	0,00034
653,08000	0,15092	0,00042
653,12000	0,16227	0,00020
653,16000	0,15168	0,00057
653,20000	0,15183	0,00040
653,24000	0,15743	0,00046
653,28000	0,15937	0,00052
653,32000	0,16120	0,00036
653,36000	0,15351	0,00051
653,40000	0,15820	0,00068
653,44000	0,16146	0,00041
653,48000	0,16400	0,00047
653,52000	0,16415	0,00027
653,56000	0,15825	0,00056
653,60000	0,16950	0,00047
653,64000	0,16146	0,00034
653,68000	0,16497	0,00052
653,72000	0,17719	0,00025
653,76000	0,17541	0,00023
653,80000	0,17556	0,00023
653,84000	0,16792	0,00040
653,88000	0,18116	0,00033
653,92000	0,18294	0,00044
653,96000	0,19491	0,00023
654,00000	0,19063	0,00058
654,04000	0,20351	0,00044
654,08000	0,20315	0,00041
654,12000	0,20061	0,00052
654,16000	0,21522	0,00050
654,20000	0,23462	0,00051
654,24000	0,24042	0,00040
654,28000	0,26221	0,00041
654,32000	0,25743	0,00048
654,36000	0,29225	0,00052
654,40000	0,29235	0,00040
654,44000	0,30167	0,00032
654,48000	0,31511	0,00057
654,52000	0,34709	0,00031
654,56000	0,36934	0,00036
654,60000	0,41760	0,00023
654,64000	0,43278	0,00041
654,68000	0,43278	0,00041
654,72000	0,44683	0,00048
654,76000	0,48089	0,00051
654,80000	0,48287	0,00042
654,84000	0,49484	0,00034
654,88000	0,51454	0,00036
654,92000	0,50400	0,00065
654,96000	0,51358	0,00038
655,00000	0,51363	0,00033
655,04000	0,51383	0,00040
655,08000	0,51103	0,00044
655,12000	0,50619	0,00033
655,16000	0,51490	0,00031
655,20000	0,49138	0,00025
655,24000	0,48104	0,00033
655,28000	0,48094	0,00027
655,32000	0,47514	0,00040
655,36000	0,46561	0,00051
655,40000	0,44754	0,00041
655,44000	0,43451	0,00036
655,48000	0,42524	0,00046
655,52000	0,39225	0,00053
655,56000	0,39235	0,00048
655,60000	0,37728	0,00057
655,64000	0,34108	0,00041
655,68000	0,30717	0,00038
655,72000	0,29872	0,00050
655,76000	0,26201	0,00058
655,80000	0,24302	0,00038
655,84000	0,21497	0,00046
655,88000	0,21491	0,00041
655,92000	0,20341	0,00051
655,96000	0,18747	0,00056
656,00000	0,18488	0,00041
656,04000	0,17164	0,00047
656,08000	0,16874	0,00053
656,12000	0,16202	0,00046
656,16000	0,16212	0,00015
656,20000	0,15367	0,00040
656,24000	0,15458	0,00036
656,28000	0,15295	0,00042
656,32000	0,15295	0,00027
656,36000	0,15158	0,00059
656,40000	0,15336	0,00040
656,44000	0,15367	0,00040
656,48000	0,15641	0,00046
656,52000	0,14990	0,00042
656,56000	0,15188	0,00050
656,60000	0,15468	0,00033
656,64000	0,15367	0,00023
656,68000	0,15372	0,00034
656,72000	0,15163	0,00033
656,76000	0,15209	0,00038
656,80000	0,14435	0,00039
656,84000	0,15372	0,00025
656,88000	0,15015	0,00025
656,92000	0,15173	0,00041
656,96000	0,14980	0,00023
657,00000	0,14974	0,00034
657,04000	0,14964	0,00034
657,08000	0,15010	0,00046
657,12000	0,15540	0,00040
657,16000	0,14817	0,00041
657,20000	0,15367	0,00033
657,24000	0,14618	0,00041
657,28000	0,14806	0,00051
657,32000	0,14781	0,00038
657,36000	0,14786	0,00036
657,40000	0,15214	0,00051
657,44000	0,15005	0,00031
657,48000	0,15840	0,00047
657,52000	0,15280	0,00034
657,56000	0,14980	0,00040
657,60000	0,15361	0,00031
657,64000	0,15361	0,00044
657,68000	0,15631	0,00041
657,72000	0,15290	0,00020
657,76000	0,15280	0,00041
657,80000	0,14806	0,00040
657,84000	0,15275	0,00034
657,88000	0,15738	0,00034
657,92000	0,15748	0,00044
657,96000	0,15382	0,00025
658,00000	0,15255	0,00048
658,04000	0,16018	0,00048
658,08000	0,15183	0,00051
658,12000	0,15458	0,00042
658,16000	0,14715	0,00047
658,20000	0,15830	0,00052
658,24000	0,15830	0,00025
658,28000	0,14903	0,00064
658,32000	0,15377	0,00034
658,36000	0,15260	0,00038
658,40000	0,16522	0,00046
658,44000	0,16410	0,00044
658,48000	0,15830	0,00025
658,52000	0,15809	0,00039
658,56000	0,16655	0,00061
658,60000	0,17154	0,00041
658,64000	0,16884	0,00036
658,68000	0,16685	0,00031
658,72000	0,17347	0,00031
658,76000	0,16507	0,00040
658,80000	0,16487	0,00040
658,84000	0,16940	0,00038
658,88000	0,16797	0,00041
658,92000	0,17271	0,00051
658,96000	0,17744	0,00032
659,00000	0,18029	0,00047
659,04000	0,19618	0,00044
659,08000	0,18752	0,00038
659,12000	0,18762	0,00032
659,16000	0,19893	0,00038
659,20000	0,19037	0,00034
659,24000	0,21206	0,00046
659,28000	0,20285	0,00042
659,32000	0,21059	0,00042
659,36000	0,21960	0,00044
659,40000	0,21965	0,00062
659,44000	0,22179	0,00042
659,48000	0,23004	0,00040
659,52000	0,22255	0,00034
659,56000	0,23650	0,00032
659,60000	0,23284	0,00020
659,64000	0,24190	0,00052
659,68000	0,25076	0,00039
659,72000	0,25086	0,00050
659,76000	0,25269	0,00050
659,80000	0,25453	0,00061
659,84000	0,25845	0,00036
659,88000	0,25173	0,00027
659,92000	0,26308	0,00038
659,96000	0,27530	0,00020
660,00000	0,27509	0,00038
660,04000	0,27056	0,00027
660,08000	0,26700	0,00036
660,12000	0,26308	0,00031
660,16000	0,25824	0,00040
660,20000	0,25824	0,00046
660,24000	0,26211	0,00046
660,28000	0,26206	0,00044
660,32000	0,25203	0,00052
660,36000	0,25096	0,00034
660,40000	0,24129	0,00041
660,44000	0,24714	0,00027
660,48000	0,23564	0,00040
660,52000	0,23849	0,00027
660,56000	0,23289	0,00042
660,60000	0,23273	0,00034
660,64000	0,22627	0,00042
660,68000	0,21105	0,00051
660,72000	0,22245	0,00047
660,76000	0,20931	0,00047
660,80000	0,20840	0,00050
660,84000	0,19511	0,00051
660,88000	0,19536	0,00031
660,92000	0,20249	0,00038
660,96000	0,19419	0,00036
661,00000	0,19348	0,00041
661,04000	0,18289	0,00051
661,08000	0,18187	0,00051
661,12000	0,16863	0,00060
661,16000	0,16858	0,00041
661,20000	0,17561	0,00025
661,24000	0,17994	0,00036
661,28000	0,17734	0,00044
661,32000	0,17255	0,00052
661,36000	0,16135	0,00034
661,40000	0,16532	0,00031
661,44000	0,16426	0,00048
661,48000	0,16390	0,00034
661,52000	0,16415	0,00058
661,56000	0,16507	0,00033
661,60000	0,15815	0,00048
661,64000	0,15453	0,00051
661,68000	0,15377	0,00041
661,72000	0,16003	0,00038
661,76000	0,16018	0,00042
661,80000	0,15178	0,00041
661,84000	0,15606	0,00046
661,88000	0,14506	0,00041
661,92000	0,15387	0,00046
661,96000	0,14873	0,00034
662,00000	0,15005	0,00055
662,04000	0,15458	0,00042
662,08000	0,15468	0,00051
662,12000	0,14603	0,00072
662,16000	0,14974	0,00041
662,20000	0,14537	0,00032
662,24000	0,14414	0,00065
662,28000	0,15443	0,00031
662,32000	0,14694	0,00027
662,36000	0,14715	0,00025
662,40000	0,15275	0,00041
662,44000	0,14633	0,00042
662,48000	0,15692	0,00051
662,52000	0,14781	0,00031
662,56000	0,15575	0,00041
662,60000	0,14313	0,00034
662,64000	0,14353	0,00041
662,68000	0,13966	0,00050
662,72000	0,14445	0,00031
662,76000	0,15092	0,00027
662,80000	0,14017	0,00038
662,84000	0,13493	0,00025
662,88000	0,14063	0,00040
662,92000	0,14633	0,00053
662,96000	0,14593	0,00048
663,00000	0,13753	0,00047
663,04000	0,13595	0,00025
663,08000	0,14903	0,00031
663,12000	0,14603	0,00033
663,16000	0,15153	0,00036
663,20000	0,13839	0,00051
663,24000	0,13859	0,00033
663,28000	0,14806	0,00046
663,32000	0,14801	0,00044
663,36000	0,13498	0,00041
663,40000	0,14694	0,00042
663,44000	0,14048	0,00034
663,48000	0,14048	0,00041
663,52000	0,14496	0,00044
663,56000	0,14532	0,00042
663,60000	0,14012	0,00033
663,64000	0,14027	0,00068
663,68000	0,14206	0,00034
663,72000	0,14593	0,00058
663,76000	0,14109	0,00047
663,80000	0,13753	0,00052
663,84000	0,13758	0,00023
663,88000	0,14618	0,00041
663,92000	0,14806	0,00033
663,96000	0,13661	0,00044
664,00000	0,14425	0,00031
664,04000	0,14608	0,00052
664,08000	0,13885	0,00020
664,12000	0,13844	0,00052
664,16000	0,14333	0,00046
664,20000	0,13478	0,00020
664,24000	0,13926	0,00046
664,28000	0,14124	0,00036
664,32000	0,14313	0,00034
664,36000	0,13585	0,00046
664,40000	0,14521	0,00040
664,44000	0,14532	0,00042
664,48000	0,13732	0,00038
664,52000	0,14048	0,00047
664,56000	0,13844	0,00041
664,60000	0,14252	0,00047
664,64000	0,13926	0,00023
664,68000	0,14048	0,00034
664,72000	0,14073	0,00042
664,76000	0,14694	0,00048
664,80000	0,14221	0,00044
664,84000	0,13941	0,00040
664,88000	0,14323	0,00050
664,92000	0,14033	0,00042
664,96000	0,13758	0,00040
665,00000	0,13747	0,00057
665,04000	0,13391	0,00041
665,08000	0,14241	0,00044
665,12000	0,14435	0,00056
665,16000	0,14134	0,00027
665,20000	0,14221	0,00038
665,24000	0,13849	0,00034
665,28000	0,14506	0,00025
665,32000	0,14496	0,00044
665,36000	0,13951	0,00052
665,40000	0,14684	0,00042
665,44000	0,14898	0,00036
665,48000	0,13732	0,00038
665,52000	0,13961	0,00060
665,56000	0,13875	0,00046
665,60000	0,13875	0,00032
665,64000	0,14822	0,00057
665,68000	0,13936	0,00050
665,72000	0,14435	0,00051
665,76000	0,13859	0,00023
665,80000	0,14211	0,00047
665,84000	0,13666	0,00042
665,88000	0,14318	0,00046
665,92000	0,14348	0,00033
665,96000	0,13854	0,00041
666,00000	0,13330	0,00023
666,04000	0,15097	0,00032
666,08000	0,15086	0,00044
666,12000	0,14124	0,00027
666,16000	0,14063	0,00033
666,20000	0,14033	0,00058
666,24000	0,14221	0,00038
666,28000	0,14027	0,00039
666,32000	0,14328	0,00027
666,36000	0,14012	0,00033
666,40000	0,14236	0,00048
666,44000	0,14343	0,00055
666,48000	0,14323	0,00038
666,52000	0,14043	0,00046
666,56000	0,14420	0,00056
666,60000	0,14786	0,00053
666,64000	0,13890	0,00023
666,68000	0,13865	0,00031
666,72000	0,14491	0,00027
666,76000	0,13666	0,00053
666,80000	0,13671	0,00032
666,84000	0,13865	0,00044
666,88000	0,14145	0,00033
666,92000	0,14145	0,00033
666,96000	0,13737	0,00033
667,00000	0,13747	0,00041
667,04000	0,13294	0,00025
667,08000	0,13320	0,00042
667,12000	0,13279	0,00040
667,16000	0,14048	0,00041
667,20000	0,13024	0,00056
667,24000	0,13961	0,00046
667,28000	0,14221	0,00044
667,32000	0,14134	0,00036
667,36000	0,14124	0,00062
667,40000	0,14226	0,00036
667,44000	0,14806	0,00051
667,48000	0,14348	0,00046
667,52000	0,14333	0,00046
667,56000	0,14343	0,00050
667,60000	0,14022	0,00070
667,64000	0,13921	0,00036
667,68000	0,13961	0,00040
667,72000	0,14781	0,00050
667,76000	0,13859	0,00051
667,80000	0,14414	0,00041
667,84000	0,13686	0,00023
667,88000	0,14801	0,00050
667,92000	0,13921	0,00036
667,96000	0,13926	0,00032
668,00000	0,13381	0,00046
668,04000	0,14252	0,00041
668,08000	0,14134	0,00036
668,12000	0,13946	0,00052
668,16000	0,14058	0,00034
668,20000	0,13676	0,00042
668,24000	0,14486	0,00039
668,28000	0,14562	0,00025
668,32000	0,14608	0,00034
668,36000	0,14139	0,00038
668,40000	0,13483	0,00040
668,44000	0,14333	0,00046
668,48000	0,14338	0,00036
668,52000	0,13951	0,00041
668,56000	0,13936	0,00044
668,60000	0,13742	0,00034
668,64000	0,13859	0,00051
668,68000	0,13931	0,00036
668,72000	0,14323	0,00038
668,76000	0,13763	0,00031
668,80000	0,14440	0,00042
668,84000	0,14460	0,00041
668,88000	0,13941	0,00051
668,92000	0,13768	0,00027
668,96000	0,13671	0,00046
669,00000	0,13956	0,00041
669,04000	0,14063	0,00040
669,08000	0,13315	0,00039
669,12000	0,13661	0,00031
669,16000	0,13661	0,00031
669,20000	0,13600	0,00041
669,24000	0,14369	0,00033
669,28000	0,14038	0,00038
669,32000	0,14333	0,00032
669,36000	0,14694	0,00027
669,40000	0,14048	0,00041
669,44000	0,14022	0,00048
669,48000	0,14425	0,00050
669,52000	0,14501	0,00033
669,56000	0,14241	0,00044
669,60000	0,13992	0,00046
669,64000	0,13956	0,00041
669,68000	0,14068	0,00044
669,72000	0,14017	0,00154
669,76000	0,13615	0,00036
669,80000	0,13941	0,00046
669,84000	0,14730	0,00059
669,88000	0,14033	0,00036
669,92000	0,14918	0,00052
669,96000	0,14506	0,00034
670,00000	0,14837	0,00042
670,04000	0,14817	0,00034
670,08000	0,14160	0,00052
670,12000	0,14521	0,00033
670,16000	0,14353	0,00034
670,20000	0,13956	0,00034
670,24000	0,15300	0,00023
670,28000	0,14618	0,00047
670,32000	0,14608	0,00041
670,36000	0,14022	0,00042
670,40000	0,14430	0,00036
670,44000	0,14705	0,00033
670,48000	0,14058	0,00034
670,52000	0,14048	0,00025
670,56000	0,15484	0,00047
670,60000	0,14715	0,00025
670,64000	0,14689	0,00023
670,68000	0,14516	0,00034
670,72000	0,14328	0,00042
670,76000	0,14715	0,00034
670,80000	0,13875	0,00046
670,84000	0,15010	0,00046
670,88000	0,13849	0,00041
670,92000	0,13839	0,00033
670,96000	0,15117	0,00034
671,00000	0,13941	0,00046
671,04000	0,14974	0,00047
671,08000	0,14516	0,00034
671,12000	0,14445	0,00038
671,16000	0,14150	0,00041
671,20000	0,14134	0,00042
671,24000	0,15005	0,00055
671,28000	0,13768	0,00053
671,32000	0,14710	0,00025
671,36000	0,14995	0,00032
671,40000	0,14333	0,00039
671,44000	0,14776	0,00040
671,48000	0,14511	0,00025
671,52000	0,14511	0,00041
671,56000	0,14058	0,00025
671,60000	0,15107	0,00044
671,64000	0,13747	0,00034
671,68000	0,13574	0,00048
671,72000	0,13966	0,00059
671,76000	0,14048	0,00034
671,80000	0,14043	0,00033
671,84000	0,14353	0,00047
671,88000	0,14139	0,00038
671,92000	0,14129	0,00056
671,96000	0,14608	0,00057
672,00000	0,14114	0,00046
672,04000	0,13829	0,00042
672,08000	0,14119	0,00031
672,12000	0,14134	0,00042
672,16000	0,14796	0,00058
672,20000	0,13366	0,00039
672,24000	0,14516	0,00025
672,28000	0,13854	0,00041
672,32000	0,15183	0,00040
672,36000	0,14435	0,00032
672,40000	0,14399	0,00051
672,44000	0,13401	0,00051
672,48000	0,14043	0,00033
672,52000	0,13865	0,00044
672,56000	0,13315	0,00032
672,60000	0,14058	0,00041
672,64000	0,14150	0,00041
672,68000	0,14124	0,00036
672,72000	0,13854	0,00041
672,76000	0,13753	0,00041
672,80000	0,14257	0,00047
672,84000	0,13941	0,00033
672,88000	0,14333	0,00072
672,92000	0,14038	0,00044
672,96000	0,13936	0,00050
673,00000	0,13956	0,00061
673,04000	0,13844	0,00052
673,08000	0,14333	0,00032
673,12000	0,14231	0,00046
673,16000	0,14521	0,00033
673,20000	0,13493	0,00025
673,24000	0,14526	0,00031
673,28000	0,14532	0,00027
673,32000	0,13671	0,00046
673,36000	0,14236	0,00036
673,40000	0,14358	0,00041
673,44000	0,14048	0,00034
673,48000	0,13758	0,00040
673,52000	0,13686	0,00033
673,56000	0,13661	0,00031
673,60000	0,13742	0,00034
673,64000	0,13854	0,00041
673,68000	0,14241	0,00044
673,72000	0,14343	0,00050
673,76000	0,14236	0,00048
673,80000	0,13320	0,00036
673,84000	0,13956	0,00034
673,88000	0,13946	0,00057
673,92000	0,13574	0,00048
673,96000	0,14333	0,00039
674,00000	0,13666	0,00027
674,04000	0,14694	0,00015
674,08000	0,13503	0,00040
674,12000	0,14027	0,00039
674,16000	0,14053	0,00047
674,20000	0,13865	0,00031
674,24000	0,13854	0,00034
674,28000	0,14068	0,00044
674,32000	0,15010	0,00046
674,36000	0,13758	0,00033
674,40000	0,13503	0,00033
674,44000	0,13854	0,00041
674,48000	0,13839	0,00046
674,52000	0,13579	0,00020
674,56000	0,13457	0,00031
674,60000	0,14501	0,00033
674,64000	0,14985	0,00050
674,68000	0,13376	0,00044
674,72000	0,14033	0,00048
674,76000	0,14053	0,00041
674,80000	0,14134	0,00058
674,84000	0,14526	0,00050
674,88000	0,14516	0,00041
674,92000	0,14511	0,00041
674,96000	0,14038	0,00038
675,00000	0,13946	0,00041
675,04000	0,13946	0,00041
675,08000	0,14308	0,00057
675,12000	0,14053	0,00047
675,16000	0,13478	0,00044
675,20000	0,14710	0,00041
675,24000	0,14124	0,00036
675,28000	0,13513	0,00053
675,32000	0,14033	0,00042
675,36000	0,14063	0,00040
675,40000	0,13961	0,00040
675,44000	0,13600	0,00034
675,48000	0,14216	0,00051
675,52000	0,14593	0,00048
675,56000	0,14425	0,00031
675,60000	0,14506	0,00047
675,64000	0,14526	0,00038
675,68000	0,14043	0,00033
675,72000	0,14618	0,00052
675,76000	0,13493	0,00047
675,80000	0,14027	0,00039
675,84000	0,13865	0,00020
675,88000	0,14425	0,00038
675,92000	0,14450	0,00040
675,96000	0,13961	0,00051
676,00000	0,14038	0,00055
676,04000	0,13182	0,00041
676,08000	0,13203	0,00050
676,12000	0,13661	0,00038
676,16000	0,13971	0,00048
676,20000	0,14109	0,00047
676,24000	0,14119	0,00038
676,28000	0,13854	0,00025
676,32000	0,14328	0,00036
676,36000	0,13844	0,00041
676,40000	0,14532	0,00036
676,44000	0,14532	0,00027
676,48000	0,13391	0,00052
676,52000	0,13386	0,00041
676,56000	0,13732	0,00038
676,60000	0,14404	0,00041
676,64000	0,14506	0,00025
676,68000	0,14318	0,00040
676,72000	0,13763	0,00038
676,76000	0,14806	0,00051
676,80000	0,14506	0,00047
676,84000	0,14516	0,00052
676,88000	0,13595	0,00047
676,92000	0,13941	0,00040
676,96000	0,14053	0,00047
677,00000	0,13681	0,00031
677,04000	0,13747	0,00041
677,08000	0,14526	0,00044
677,12000	0,14511	0,00047
677,16000	0,14450	0,00033
677,20000	0,14246	0,00056
677,24000	0,13478	0,00020
677,28000	0,14058	0,00041
677,32000	0,14598	0,00031
677,36000	0,15204	0,00048
677,40000	0,15188	0,00031
677,44000	0,13498	0,00047
677,48000	0,13758	0,00033
677,52000	0,14257	0,00034
677,56000	0,13870	0,00042
677,60000	0,14252	0,00047
677,64000	0,14338	0,00058
677,68000	0,14613	0,00047
677,72000	0,14582	0,00042
677,76000	0,14114	0,00068
677,80000	0,15260	0,00068
677,84000	0,14460	0,00041
677,88000	0,13966	0,00044
677,92000	0,14058	0,00034
677,96000	0,14150	0,00034
678,00000	0,14134	0,00053
678,04000	0,13778	0,00042
678,08000	0,14348	0,00040
678,12000	0,14114	0,00033
678,16000	0,14328	0,00048
678,20000	0,14114	0,00023
678,24000	0,13931	0,00048
678,28000	0,14226	0,00036
678,32000	0,14246	0,00040
678,36000	0,14435	0,00039
678,40000	0,13778	0,00015
678,44000	0,14689	0,00039
678,48000	0,13941	0,00033
678,52000	0,13859	0,00033
678,56000	0,14134	0,00036
678,60000	0,14119	0,00031
678,64000	0,13849	0,00047
678,68000	0,13971	0,00036
678,72000	0,13849	0,00034
678,76000	0,14445	0,00044
678,80000	0,13824	0,00051
678,84000	0,14358	0,00047
678,88000	0,14333	0,00039
678,92000	0,14119	0,00055
678,96000	0,13854	0,00047
679,00000	0,14226	0,00036
679,04000	0,14343	0,00050
679,08000	0,14613	0,00041
679,12000	0,13941	0,00046
679,16000	0,14796	0,00015
679,20000	0,14801	0,00044
679,24000	0,15168	0,00052
679,28000	0,13483	0,00051
679,32000	0,14633	0,00042
679,36000	0,13681	0,00031
679,40000	0,14822	0,00047
679,44000	0,13946	0,00047
679,48000	0,13977	0,00056
679,52000	0,13956	0,00052
679,56000	0,13859	0,00056
679,60000	0,13686	0,00040
679,64000	0,14053	0,00025
679,68000	0,13849	0,00047
679,72000	0,13310	0,00042
679,76000	0,13284	0,00057
679,80000	0,14796	0,00053
679,84000	0,14705	0,00040
679,88000	0,13681	0,00059
679,92000	0,13600	0,00061
679,96000	0,14348	0,00023
