Raman-Spectrum _CCl4 _aspol9001.dat
27/09/2021
11:52:14
_CCl4
_aspol90 Temp: NON
X in nm	Y Signal 	Error Signal				
625,04000	0,19918	0,00033
625,08000	0,20636	0,00050
625,12000	0,20921	0,00034
625,16000	0,21318	0,00059
625,20000	0,20957	0,00042
625,24000	0,21217	0,00147
625,28000	0,21293	0,00033
625,32000	0,20926	0,00047
625,36000	0,20931	0,00061
625,40000	0,20468	0,00041
625,44000	0,21690	0,00041
625,48000	0,20651	0,00036
625,52000	0,20758	0,00038
625,56000	0,20733	0,00033
625,60000	0,20458	0,00033
625,64000	0,20906	0,00027
625,68000	0,20830	0,00041
625,72000	0,20840	0,00031
625,76000	0,21008	0,00036
625,80000	0,20438	0,00048
625,84000	0,20432	0,00038
625,88000	0,20443	0,00046
625,92000	0,20850	0,00051
625,96000	0,20840	0,00031
626,00000	0,20916	0,00046
626,04000	0,20361	0,00041
626,08000	0,21227	0,00052
626,12000	0,20458	0,00040
626,16000	0,20443	0,00039
626,20000	0,20473	0,00047
626,24000	0,20539	0,00048
626,28000	0,19989	0,00042
626,32000	0,20142	0,00036
626,36000	0,20432	0,00055
626,40000	0,21797	0,00061
626,44000	0,21792	0,00041
626,48000	0,21023	0,00034
626,52000	0,21430	0,00052
626,56000	0,21395	0,00040
626,60000	0,22001	0,00034
626,64000	0,21400	0,00031
626,68000	0,20845	0,00042
626,72000	0,20840	0,00031
626,76000	0,21491	0,00041
626,80000	0,21334	0,00041
626,84000	0,21293	0,00051
626,88000	0,20346	0,00048
626,92000	0,20631	0,00046
626,96000	0,20926	0,00034
627,00000	0,20020	0,00033
627,04000	0,20020	0,00056
627,08000	0,20188	0,00032
627,12000	0,20911	0,00031
627,16000	0,21568	0,00053
627,20000	0,20993	0,00044
627,24000	0,20264	0,00041
627,28000	0,20845	0,00027
627,32000	0,20840	0,00038
627,36000	0,20259	0,00041
627,40000	0,20244	0,00027
627,44000	0,20753	0,00053
627,48000	0,21013	0,00038
627,52000	0,20626	0,00025
627,56000	0,20840	0,00044
627,60000	0,20921	0,00041
627,64000	0,20952	0,00039
627,68000	0,20631	0,00033
627,72000	0,21624	0,00031
627,76000	0,19969	0,00046
627,80000	0,20824	0,00025
627,84000	0,20351	0,00050
627,88000	0,19908	0,00034
627,92000	0,19883	0,00046
627,96000	0,20544	0,00046
628,00000	0,20998	0,00027
628,04000	0,21013	0,00044
628,08000	0,20183	0,00027
628,12000	0,20280	0,00038
628,16000	0,20000	0,00040
628,20000	0,19995	0,00031
628,24000	0,20631	0,00046
628,28000	0,20178	0,00038
628,32000	0,20086	0,00051
628,36000	0,20081	0,00027
628,40000	0,20285	0,00053
628,44000	0,19338	0,00040
628,48000	0,18757	0,00036
628,52000	0,18742	0,00041
628,56000	0,19429	0,00027
628,60000	0,18391	0,00033
628,64000	0,18233	0,00052
628,68000	0,17994	0,00036
628,72000	0,17240	0,00042
628,76000	0,16970	0,00031
628,80000	0,16940	0,00038
628,84000	0,15830	0,00034
628,88000	0,15173	0,00025
628,92000	0,17047	0,00060
628,96000	0,14974	0,00041
629,00000	0,14791	0,00039
629,04000	0,13671	0,00046
629,08000	0,13661	0,00044
629,12000	0,14068	0,00020
629,16000	0,14323	0,00044
629,20000	0,13386	0,00034
629,24000	0,12755	0,00039
629,28000	0,12531	0,00057
629,32000	0,11955	0,00051
629,36000	0,12077	0,00033
629,40000	0,12062	0,00034
629,44000	0,11482	0,00032
629,48000	0,11105	0,00057
629,52000	0,11400	0,00025
629,56000	0,11110	0,00051
629,60000	0,11120	0,00036
629,64000	0,10774	0,00036
629,68000	0,10764	0,00036
629,72000	0,10581	0,00040
629,76000	0,11034	0,00020
629,80000	0,10535	0,00047
629,84000	0,10061	0,00036
629,88000	0,10173	0,00033
629,92000	0,09883	0,00047
629,96000	0,10372	0,00038
630,00000	0,10372	0,00044
630,04000	0,09807	0,00048
630,08000	0,09741	0,00031
630,12000	0,10550	0,00046
630,16000	0,09333	0,00044
630,20000	0,09613	0,00023
630,24000	0,09715	0,00040
630,28000	0,09695	0,00027
630,32000	0,09990	0,00046
630,36000	0,10071	0,00033
630,40000	0,09603	0,00036
630,44000	0,09629	0,00041
630,48000	0,09690	0,00038
630,52000	0,09323	0,00052
630,56000	0,09343	0,00032
630,60000	0,09532	0,00023
630,64000	0,09415	0,00069
630,68000	0,09333	0,00050
630,72000	0,09639	0,00050
630,76000	0,09496	0,00032
630,80000	0,09435	0,00038
630,84000	0,09547	0,00039
630,88000	0,09511	0,00046
630,92000	0,09873	0,00057
630,96000	0,09990	0,00046
631,00000	0,09226	0,00046
631,04000	0,09822	0,00041
631,08000	0,09639	0,00038
631,12000	0,09598	0,00046
631,16000	0,09634	0,00023
631,20000	0,10479	0,00040
631,24000	0,10357	0,00036
631,28000	0,10545	0,00034
631,32000	0,11151	0,00034
631,36000	0,11675	0,00044
631,40000	0,11573	0,00050
631,44000	0,12352	0,00048
631,48000	0,12342	0,00042
631,52000	0,12918	0,00031
631,56000	0,13096	0,00046
631,60000	0,13513	0,00042
631,64000	0,14705	0,00040
631,68000	0,14257	0,00034
631,72000	0,14241	0,00044
631,76000	0,14236	0,00048
631,80000	0,15178	0,00025
631,84000	0,15743	0,00040
631,88000	0,16217	0,00039
631,92000	0,15825	0,00046
631,96000	0,15636	0,00034
632,00000	0,16573	0,00032
632,04000	0,16573	0,00051
632,08000	0,15967	0,00048
632,12000	0,16130	0,00051
632,16000	0,17261	0,00034
632,20000	0,17724	0,00034
632,24000	0,17245	0,00050
632,28000	0,17887	0,00044
632,32000	0,17826	0,00034
632,36000	0,17821	0,00047
632,40000	0,17551	0,00031
632,44000	0,16583	0,00031
632,48000	0,16487	0,00040
632,52000	0,17062	0,00057
632,56000	0,16018	0,00042
632,60000	0,15178	0,00057
632,64000	0,15158	0,00044
632,68000	0,15448	0,00042
632,72000	0,15565	0,00038
632,76000	0,15545	0,00044
632,80000	0,14913	0,00034
632,84000	0,14027	0,00039
632,88000	0,14613	0,00041
632,92000	0,14608	0,00061
632,96000	0,13483	0,00051
633,00000	0,14119	0,00031
633,04000	0,13182	0,00034
633,08000	0,12719	0,00046
633,12000	0,12999	0,00044
633,16000	0,12205	0,00038
633,20000	0,11803	0,00046
633,24000	0,11803	0,00033
633,28000	0,12169	0,00047
633,32000	0,11579	0,00048
633,36000	0,11013	0,00050
633,40000	0,11594	0,00038
633,44000	0,10912	0,00031
633,48000	0,10901	0,00057
633,52000	0,10927	0,00053
633,56000	0,10901	0,00052
633,60000	0,10540	0,00041
633,64000	0,10015	0,00050
633,68000	0,10285	0,00025
633,72000	0,09995	0,00044
633,76000	0,10092	0,00051
633,80000	0,10005	0,00039
633,84000	0,09985	0,00047
633,88000	0,09868	0,00040
633,92000	0,10087	0,00034
633,96000	0,09705	0,00036
634,00000	0,09781	0,00041
634,04000	0,09715	0,00040
634,08000	0,09491	0,00042
634,12000	0,09532	0,00046
634,16000	0,10209	0,00039
634,20000	0,09791	0,00038
634,24000	0,09791	0,00031
634,28000	0,09522	0,00052
634,32000	0,10010	0,00036
634,36000	0,09791	0,00038
634,40000	0,09817	0,00033
634,44000	0,08844	0,00050
634,48000	0,09155	0,00033
634,52000	0,09639	0,00050
634,56000	0,09878	0,00052
634,60000	0,09873	0,00041
634,64000	0,10158	0,00032
634,68000	0,09715	0,00023
634,72000	0,09700	0,00023
634,76000	0,10168	0,00050
634,80000	0,09527	0,00052
634,84000	0,10280	0,00057
634,88000	0,09985	0,00047
634,92000	0,09888	0,00040
634,96000	0,09415	0,00034
635,00000	0,09415	0,00034
635,04000	0,09700	0,00039
635,08000	0,10010	0,00048
635,12000	0,09802	0,00039
635,16000	0,08982	0,00042
635,20000	0,10270	0,00050
635,24000	0,09410	0,00033
635,28000	0,09033	0,00053
635,32000	0,09028	0,00038
635,36000	0,10194	0,00046
635,40000	0,10066	0,00050
635,44000	0,10168	0,00038
635,48000	0,09517	0,00047
635,52000	0,09776	0,00041
635,56000	0,09730	0,00057
635,60000	0,09705	0,00048
635,64000	0,09435	0,00031
635,68000	0,09425	0,00034
635,72000	0,09262	0,00041
635,76000	0,09807	0,00036
635,80000	0,09420	0,00041
635,84000	0,09807	0,00027
635,88000	0,09807	0,00036
635,92000	0,09303	0,00050
635,96000	0,09990	0,00046
636,00000	0,09786	0,00040
636,04000	0,09990	0,00023
636,08000	0,09328	0,00046
636,12000	0,10632	0,00033
636,16000	0,09812	0,00031
636,20000	0,09807	0,00048
636,24000	0,09593	0,00042
636,28000	0,09710	0,00068
636,32000	0,10005	0,00032
636,36000	0,09898	0,00036
636,40000	0,10275	0,00033
636,44000	0,09995	0,00044
636,48000	0,09985	0,00041
636,52000	0,09909	0,00048
636,56000	0,10178	0,00025
636,60000	0,09873	0,00034
636,64000	0,09679	0,00047
636,68000	0,10087	0,00025
636,72000	0,09791	0,00038
636,76000	0,09812	0,00031
636,80000	0,09603	0,00053
636,84000	0,10285	0,00041
636,88000	0,09501	0,00048
636,92000	0,09298	0,00048
636,96000	0,09791	0,00031
637,00000	0,09420	0,00034
637,04000	0,10250	0,00044
637,08000	0,10270	0,00038
637,12000	0,09980	0,00041
637,16000	0,10158	0,00051
637,20000	0,09603	0,00042
637,24000	0,09690	0,00031
637,28000	0,11039	0,00033
637,32000	0,09527	0,00047
637,36000	0,09506	0,00031
637,40000	0,09791	0,00059
637,44000	0,09725	0,00047
637,48000	0,10082	0,00034
637,52000	0,10260	0,00032
637,56000	0,09980	0,00052
637,60000	0,10626	0,00055
637,64000	0,09695	0,00053
637,68000	0,09679	0,00041
637,72000	0,09807	0,00042
637,76000	0,09700	0,00046
637,80000	0,10183	0,00025
637,84000	0,10066	0,00038
637,88000	0,10922	0,00032
637,92000	0,10306	0,00048
637,96000	0,10265	0,00036
638,00000	0,10077	0,00034
638,04000	0,10377	0,00033
638,08000	0,10621	0,00015
638,12000	0,10820	0,00046
638,16000	0,10835	0,00023
638,20000	0,11090	0,00051
638,24000	0,11130	0,00036
638,28000	0,11283	0,00036
638,32000	0,10560	0,00042
638,36000	0,11314	0,00051
638,40000	0,11197	0,00041
638,44000	0,11304	0,00052
638,48000	0,11487	0,00042
638,52000	0,12912	0,00048
638,56000	0,12923	0,00023
638,60000	0,12368	0,00052
638,64000	0,12449	0,00039
638,68000	0,12714	0,00038
638,72000	0,12424	0,00034
638,76000	0,12831	0,00052
638,80000	0,13600	0,00034
638,84000	0,13564	0,00036
638,88000	0,13488	0,00034
638,92000	0,14109	0,00034
638,96000	0,15183	0,00040
639,00000	0,14694	0,00027
639,04000	0,15071	0,00034
639,08000	0,16008	0,00053
639,12000	0,15641	0,00051
639,16000	0,15636	0,00025
639,20000	0,16665	0,00050
639,24000	0,16680	0,00058
639,28000	0,17541	0,00046
639,32000	0,18376	0,00052
639,36000	0,17831	0,00056
639,40000	0,18106	0,00027
639,44000	0,18131	0,00034
639,48000	0,18101	0,00039
639,52000	0,19414	0,00031
639,56000	0,19241	0,00041
639,60000	0,20254	0,00033
639,64000	0,20621	0,00057
639,68000	0,21486	0,00025
639,72000	0,21476	0,00040
639,76000	0,21222	0,00023
639,80000	0,21043	0,00050
639,84000	0,21792	0,00041
639,88000	0,21497	0,00040
639,92000	0,22622	0,00038
639,96000	0,23090	0,00032
640,00000	0,23457	0,00038
640,04000	0,23477	0,00025
640,08000	0,23930	0,00041
640,12000	0,24027	0,00041
640,16000	0,23925	0,00041
640,20000	0,23029	0,00031
640,24000	0,24205	0,00048
640,28000	0,25081	0,00036
640,32000	0,25061	0,00033
640,36000	0,26308	0,00038
640,40000	0,26476	0,00025
640,44000	0,27046	0,00033
640,48000	0,26593	0,00038
640,52000	0,28518	0,00047
640,56000	0,28533	0,00048
640,60000	0,28553	0,00033
640,64000	0,28365	0,00034
640,68000	0,29592	0,00065
640,72000	0,29200	0,00039
640,76000	0,29877	0,00040
640,80000	0,30457	0,00040
640,84000	0,31002	0,00025
640,88000	0,33721	0,00031
640,92000	0,33711	0,00041
640,96000	0,32255	0,00056
641,00000	0,35243	0,00033
641,04000	0,33726	0,00036
641,08000	0,37326	0,00034
641,12000	0,37891	0,00046
641,16000	0,38441	0,00052
641,20000	0,38456	0,00038
641,24000	0,39209	0,00052
641,28000	0,39770	0,00047
641,32000	0,40060	0,00046
641,36000	0,41180	0,00051
641,40000	0,40823	0,00046
641,44000	0,41964	0,00040
641,48000	0,40355	0,00027
641,52000	0,40360	0,00020
641,56000	0,40798	0,00038
641,60000	0,40426	0,00041
641,64000	0,42626	0,00033
641,68000	0,40986	0,00047
641,72000	0,41114	0,00046
641,76000	0,39759	0,00041
641,80000	0,39770	0,00034
641,84000	0,40268	0,00025
641,88000	0,39510	0,00073
641,92000	0,39031	0,00036
641,96000	0,38293	0,00052
642,00000	0,36669	0,00040
642,04000	0,36664	0,00041
642,08000	0,36649	0,00040
642,12000	0,37407	0,00050
642,16000	0,35635	0,00052
642,20000	0,34108	0,00047
642,24000	0,33640	0,00044
642,28000	0,32988	0,00041
642,32000	0,32993	0,00041
642,36000	0,29480	0,00041
642,40000	0,29495	0,00038
642,44000	0,29964	0,00023
642,48000	0,29393	0,00038
642,52000	0,29780	0,00034
642,56000	0,28828	0,00023
642,60000	0,28655	0,00056
642,64000	0,27907	0,00025
642,68000	0,27896	0,00041
642,72000	0,27728	0,00048
642,76000	0,26282	0,00023
642,80000	0,27988	0,00031
642,84000	0,27840	0,00033
642,88000	0,27423	0,00027
642,92000	0,26832	0,00041
642,96000	0,25259	0,00025
643,00000	0,25264	0,00023
643,04000	0,25926	0,00033
643,08000	0,27148	0,00040
643,12000	0,26700	0,00015
643,16000	0,27438	0,00061
643,20000	0,26303	0,00036
643,24000	0,27718	0,00027
643,28000	0,27698	0,00034
643,32000	0,26288	0,00044
643,36000	0,26949	0,00020
643,40000	0,27805	0,00047
643,44000	0,26858	0,00039
643,48000	0,26221	0,00047
643,52000	0,25814	0,00041
643,56000	0,25824	0,00040
643,60000	0,26384	0,00023
643,64000	0,26481	0,00034
643,68000	0,27235	0,00034
643,72000	0,26674	0,00052
643,76000	0,26094	0,00056
643,80000	0,26848	0,00031
643,84000	0,27601	0,00047
643,88000	0,27596	0,00025
643,92000	0,27143	0,00041
643,96000	0,26588	0,00060
644,00000	0,27352	0,00040
644,04000	0,27331	0,00023
644,08000	0,26878	0,00034
644,12000	0,27891	0,00051
644,16000	0,27902	0,00041
644,20000	0,26685	0,00041
644,24000	0,27408	0,00031
644,28000	0,28070	0,00059
644,32000	0,28070	0,00031
644,36000	0,28548	0,00044
644,40000	0,28808	0,00033
644,44000	0,28818	0,00052
644,48000	0,28579	0,00044
644,52000	0,29312	0,00055
644,56000	0,28548	0,00031
644,60000	0,30549	0,00034
644,64000	0,30819	0,00038
644,68000	0,30814	0,00046
644,72000	0,31934	0,00033
644,76000	0,31934	0,00040
644,80000	0,33813	0,00025
644,84000	0,34164	0,00052
644,88000	0,33349	0,00047
644,92000	0,35075	0,00047
644,96000	0,35656	0,00038
645,00000	0,35651	0,00051
645,04000	0,35635	0,00034
645,08000	0,37606	0,00042
645,12000	0,37448	0,00051
645,16000	0,38751	0,00047
645,20000	0,39973	0,00047
645,24000	0,41552	0,00047
645,28000	0,39683	0,00036
645,32000	0,41928	0,00046
645,36000	0,41959	0,00047
645,40000	0,42524	0,00040
645,44000	0,43471	0,00023
645,48000	0,42239	0,00048
645,52000	0,42168	0,00033
645,56000	0,42616	0,00034
645,60000	0,42967	0,00034
645,64000	0,42987	0,00031
645,68000	0,41282	0,00060
645,72000	0,42519	0,00047
645,76000	0,43257	0,00036
645,80000	0,41363	0,00048
645,84000	0,39668	0,00052
645,88000	0,39591	0,00027
645,92000	0,39581	0,00036
645,96000	0,39770	0,00041
646,00000	0,38268	0,00042
646,04000	0,38191	0,00057
646,08000	0,35727	0,00055
646,12000	0,36226	0,00039
646,16000	0,36109	0,00033
646,20000	0,34398	0,00027
646,24000	0,34413	0,00047
646,28000	0,34225	0,00033
646,32000	0,32122	0,00041
646,36000	0,31211	0,00025
646,40000	0,30544	0,00047
646,44000	0,29515	0,00044
646,48000	0,28950	0,00027
646,52000	0,28961	0,00033
646,56000	0,29011	0,00023
646,60000	0,29139	0,00020
646,64000	0,26394	0,00053
646,68000	0,27886	0,00050
646,72000	0,25936	0,00048
646,76000	0,26848	0,00055
646,80000	0,26028	0,00056
646,84000	0,26028	0,00056
646,88000	0,26400	0,00023
646,92000	0,25997	0,00036
646,96000	0,26308	0,00038
647,00000	0,27606	0,00023
647,04000	0,26787	0,00041
647,08000	0,25356	0,00034
647,12000	0,25371	0,00044
647,16000	0,25549	0,00056
647,20000	0,25646	0,00031
647,24000	0,25249	0,00034
647,28000	0,25259	0,00034
647,32000	0,26832	0,00047
647,36000	0,25157	0,00025
647,40000	0,25173	0,00036
647,44000	0,25941	0,00039
647,48000	0,26176	0,00052
647,52000	0,26048	0,00042
647,56000	0,25646	0,00050
647,60000	0,24618	0,00032
647,64000	0,25931	0,00044
647,68000	0,25458	0,00034
647,72000	0,25458	0,00034
647,76000	0,25651	0,00051
647,80000	0,25880	0,00044
647,84000	0,24984	0,00038
647,88000	0,25453	0,00047
647,92000	0,26944	0,00033
647,96000	0,25081	0,00066
648,00000	0,25106	0,00041
648,04000	0,26613	0,00038
648,08000	0,24226	0,00040
648,12000	0,24261	0,00046
648,16000	0,26211	0,00040
648,20000	0,25183	0,00048
648,24000	0,25442	0,00038
648,28000	0,25437	0,00048
648,32000	0,26501	0,00023
648,36000	0,24562	0,00048
648,40000	0,25234	0,00042
648,44000	0,25840	0,00046
648,48000	0,26476	0,00034
648,52000	0,25840	0,00046
648,56000	0,25101	0,00052
648,60000	0,25081	0,00042
648,64000	0,25840	0,00039
648,68000	0,26191	0,00036
648,72000	0,24893	0,00041
648,76000	0,25086	0,00055
648,80000	0,24226	0,00040
648,84000	0,25931	0,00038
648,88000	0,25911	0,00041
648,92000	0,26496	0,00027
648,96000	0,26211	0,00046
649,00000	0,25539	0,00036
649,04000	0,24872	0,00046
649,08000	0,25173	0,00053
649,12000	0,25666	0,00052
649,16000	0,25386	0,00053
649,20000	0,25346	0,00040
649,24000	0,25646	0,00050
649,28000	0,24898	0,00052
649,32000	0,24954	0,00041
649,36000	0,25259	0,00047
649,40000	0,25941	0,00032
649,44000	0,26008	0,00033
649,48000	0,25997	0,00048
649,52000	0,27591	0,00034
649,56000	0,26206	0,00071
649,60000	0,26191	0,00053
649,64000	0,24434	0,00034
649,68000	0,26532	0,00025
649,72000	0,26226	0,00041
649,76000	0,26216	0,00034
649,80000	0,27224	0,00038
649,84000	0,27907	0,00057
649,88000	0,26379	0,00034
649,92000	0,27046	0,00046
649,96000	0,28166	0,00051
650,00000	0,27723	0,00046
650,04000	0,28849	0,00042
650,08000	0,28838	0,00042
650,12000	0,28757	0,00051
650,16000	0,29235	0,00033
650,20000	0,29897	0,00046
650,24000	0,29796	0,00033
650,28000	0,29658	0,00046
650,32000	0,30722	0,00048
650,36000	0,30707	0,00047
650,40000	0,33100	0,00047
650,44000	0,31674	0,00041
650,48000	0,33446	0,00047
650,52000	0,36032	0,00020
650,56000	0,35050	0,00036
650,60000	0,38359	0,00036
650,64000	0,38965	0,00633
650,68000	0,39586	0,00039
650,72000	0,40162	0,00040
650,76000	0,42692	0,00039
650,80000	0,44123	0,00027
650,84000	0,45625	0,00047
650,88000	0,47768	0,00056
650,92000	0,49667	0,00039
650,96000	0,49667	0,00032
651,00000	0,53409	0,00041
651,04000	0,54677	0,00034
651,08000	0,56261	0,00041
651,12000	0,58903	0,00047
651,16000	0,61922	0,00051
651,20000	0,62131	0,00050
651,24000	0,62095	0,00015
651,28000	0,64376	0,00053
651,32000	0,68129	0,00047
651,36000	0,68042	0,00042
651,40000	0,70659	0,00023
651,44000	0,71631	0,00052
651,48000	0,71326	0,00041
651,52000	0,73480	0,00046
651,56000	0,73505	0,00038
651,60000	0,71830	0,00051
651,64000	0,73312	0,00034
651,68000	0,71540	0,00025
651,72000	0,71535	0,00034
651,76000	0,72278	0,00036
651,80000	0,70384	0,00027
651,84000	0,70425	0,00040
651,88000	0,68984	0,00047
651,92000	0,69264	0,00027
651,96000	0,65965	0,00066
652,00000	0,62864	0,00050
652,04000	0,60130	0,00034
652,08000	0,59275	0,00033
652,12000	0,59270	0,00034
652,16000	0,55685	0,00031
652,20000	0,55217	0,00032
652,24000	0,51658	0,00036
652,28000	0,48084	0,00036
652,32000	0,46200	0,00042
652,36000	0,46205	0,00039
652,40000	0,42213	0,00047
652,44000	0,42219	0,00033
652,48000	0,39332	0,00032
652,52000	0,39602	0,00040
652,56000	0,36379	0,00051
652,60000	0,35162	0,00042
652,64000	0,34480	0,00040
652,68000	0,31028	0,00048
652,72000	0,31007	0,00034
652,76000	0,32423	0,00023
652,80000	0,31404	0,00040
652,84000	0,29678	0,00025
652,88000	0,29887	0,00047
652,92000	0,28716	0,00047
652,96000	0,28446	0,00031
653,00000	0,28273	0,00038
653,04000	0,28268	0,00056
653,08000	0,26501	0,00039
653,12000	0,28090	0,00038
653,16000	0,26955	0,00062
653,20000	0,28166	0,00040
653,24000	0,26506	0,00027
653,28000	0,26328	0,00034
653,32000	0,26303	0,00048
653,36000	0,25855	0,00040
653,40000	0,26201	0,00027
653,44000	0,26191	0,00036
653,48000	0,24959	0,00033
653,52000	0,25437	0,00048
653,56000	0,25671	0,00040
653,60000	0,25631	0,00042
653,64000	0,26700	0,00027
653,68000	0,24806	0,00051
653,72000	0,24974	0,00051
653,76000	0,26002	0,00059
653,80000	0,26226	0,00034
653,84000	0,25259	0,00052
653,88000	0,26043	0,00039
653,92000	0,26013	0,00052
653,96000	0,24989	0,00033
654,00000	0,24500	0,00040
654,04000	0,24394	0,00041
654,08000	0,25437	0,00027
654,12000	0,24414	0,00032
654,16000	0,25366	0,00040
654,20000	0,25376	0,00042
654,24000	0,25738	0,00039
654,28000	0,24699	0,00025
654,32000	0,25351	0,00052
654,36000	0,25239	0,00044
654,40000	0,24984	0,00055
654,44000	0,25152	0,00047
654,48000	0,25167	0,00055
654,52000	0,25325	0,00036
654,56000	0,25173	0,00058
654,60000	0,25911	0,00034
654,64000	0,24780	0,00055
654,68000	0,25829	0,00044
654,72000	0,24811	0,00044
654,76000	0,25274	0,00015
654,80000	0,25300	0,00034
654,84000	0,25926	0,00040
654,88000	0,25086	0,00031
654,92000	0,25320	0,00038
654,96000	0,25274	0,00015
655,00000	0,24521	0,00015
655,04000	0,24302	0,00038
655,08000	0,24327	0,00033
655,12000	0,24628	0,00038
655,16000	0,24602	0,00060
655,20000	0,25549	0,00051
655,24000	0,24979	0,00042
655,28000	0,25453	0,00034
655,32000	0,25626	0,00068
655,36000	0,25279	0,00056
655,40000	0,25264	0,00051
655,44000	0,25921	0,00041
655,48000	0,25081	0,00042
655,52000	0,25081	0,00036
655,56000	0,25356	0,00065
655,60000	0,24903	0,00047
655,64000	0,24806	0,00033
655,68000	0,24801	0,00047
655,72000	0,24597	0,00034
655,76000	0,25381	0,00046
655,80000	0,24307	0,00048
655,84000	0,25178	0,00056
655,88000	0,26038	0,00048
655,92000	0,25437	0,00042
655,96000	0,25432	0,00046
656,00000	0,24623	0,00036
656,04000	0,24047	0,00050
656,08000	0,24694	0,00047
656,12000	0,24602	0,00046
656,16000	0,25178	0,00051
656,20000	0,25162	0,00046
656,24000	0,25753	0,00040
656,28000	0,25733	0,00027
656,32000	0,25666	0,00052
656,36000	0,24699	0,00047
656,40000	0,25931	0,00044
656,44000	0,25911	0,00025
656,48000	0,24500	0,00023
656,52000	0,24607	0,00050
656,56000	0,24618	0,00051
656,60000	0,23762	0,00050
656,64000	0,24495	0,00041
656,68000	0,24999	0,00061
656,72000	0,24231	0,00034
656,76000	0,24521	0,00048
656,80000	0,24241	0,00047
656,84000	0,25615	0,00047
656,88000	0,25641	0,00042
656,92000	0,24699	0,00041
656,96000	0,24032	0,00034
657,00000	0,25157	0,00057
657,04000	0,24129	0,00025
657,08000	0,25173	0,00048
657,12000	0,23660	0,00031
657,16000	0,23660	0,00059
657,20000	0,24037	0,00061
657,24000	0,24017	0,00038
657,28000	0,24439	0,00034
657,32000	0,24063	0,00036
657,36000	0,25549	0,00040
657,40000	0,24322	0,00050
657,44000	0,24307	0,00042
657,48000	0,23167	0,00034
657,52000	0,24964	0,00031
657,56000	0,23849	0,00042
657,60000	0,24017	0,00044
657,64000	0,24139	0,00047
657,68000	0,24037	0,00041
657,72000	0,24312	0,00032
657,76000	0,24338	0,00034
657,80000	0,24134	0,00041
657,84000	0,24511	0,00048
657,88000	0,25651	0,00056
657,92000	0,24444	0,00025
657,96000	0,24709	0,00031
658,00000	0,24842	0,00047
658,04000	0,24877	0,00048
658,08000	0,24210	0,00051
658,12000	0,25264	0,00051
658,16000	0,24500	0,00033
658,20000	0,24607	0,00038
658,24000	0,24322	0,00031
658,28000	0,24495	0,00034
658,32000	0,24465	0,00137
658,36000	0,23859	0,00027
658,40000	0,23487	0,00038
658,44000	0,23925	0,00041
658,48000	0,24984	0,00031
658,52000	0,24786	0,00040
658,56000	0,24862	0,00038
658,60000	0,24984	0,00044
658,64000	0,24989	0,00040
658,68000	0,24984	0,00064
658,72000	0,25941	0,00023
658,76000	0,25096	0,00052
658,80000	0,23762	0,00050
658,84000	0,25651	0,00051
658,88000	0,24139	0,00052
658,92000	0,24134	0,00034
658,96000	0,25152	0,00041
659,00000	0,23553	0,00048
659,04000	0,24612	0,00036
659,08000	0,24134	0,00034
659,12000	0,24129	0,00034
659,16000	0,25071	0,00036
659,20000	0,24246	0,00046
659,24000	0,24226	0,00033
659,28000	0,24628	0,00044
659,32000	0,24144	0,00033
659,36000	0,23925	0,00052
659,40000	0,24307	0,00048
659,44000	0,24124	0,00060
659,48000	0,24327	0,00046
659,52000	0,24307	0,00048
659,56000	0,25178	0,00032
659,60000	0,24786	0,00051
659,64000	0,24801	0,00047
659,68000	0,24607	0,00044
659,72000	0,24577	0,00038
659,76000	0,23579	0,00041
659,80000	0,23569	0,00061
659,84000	0,23844	0,00055
659,88000	0,24908	0,00033
659,92000	0,24154	0,00027
659,96000	0,23289	0,00036
660,00000	0,23935	0,00034
660,04000	0,24796	0,00052
660,08000	0,24098	0,00044
660,12000	0,24124	0,00033
660,16000	0,23655	0,00027
660,20000	0,24663	0,00048
660,24000	0,24434	0,00041
660,28000	0,23935	0,00041
660,32000	0,23737	0,00023
660,36000	0,24429	0,00046
660,40000	0,24409	0,00053
660,44000	0,23665	0,00033
660,48000	0,24638	0,00052
660,52000	0,24226	0,00040
660,56000	0,23732	0,00052
660,60000	0,24684	0,00033
660,64000	0,23762	0,00044
660,68000	0,24134	0,00034
660,72000	0,24129	0,00034
660,76000	0,24236	0,00034
660,80000	0,23075	0,00033
660,84000	0,24317	0,00066
660,88000	0,23844	0,00044
660,92000	0,23935	0,00047
660,96000	0,24052	0,00048
661,00000	0,24058	0,00039
661,04000	0,24796	0,00025
661,08000	0,23009	0,00047
661,12000	0,23462	0,00023
661,16000	0,23910	0,00036
661,20000	0,24220	0,00044
661,24000	0,24042	0,00033
661,28000	0,24042	0,00040
661,32000	0,23946	0,00044
661,36000	0,23752	0,00046
661,40000	0,23869	0,00033
661,44000	0,25188	0,00044
661,48000	0,23956	0,00046
661,52000	0,23823	0,00047
661,56000	0,23477	0,00034
661,60000	0,23472	0,00025
661,64000	0,22988	0,00046
661,68000	0,25356	0,00034
661,72000	0,23477	0,00047
661,76000	0,23559	0,00050
661,80000	0,23849	0,00015
661,84000	0,23752	0,00051
661,88000	0,23752	0,00039
661,92000	0,23742	0,00064
661,96000	0,24495	0,00034
662,00000	0,24602	0,00040
662,04000	0,22520	0,00050
662,08000	0,24577	0,00050
662,12000	0,24414	0,00051
662,16000	0,24231	0,00182
662,20000	0,24047	0,00038
662,24000	0,22999	0,00038
662,28000	0,23391	0,00036
662,32000	0,22907	0,00034
662,36000	0,23930	0,00025
662,40000	0,23289	0,00048
662,44000	0,24383	0,00041
662,48000	0,24399	0,00051
662,52000	0,24047	0,00044
662,56000	0,23833	0,00025
662,60000	0,24231	0,00034
662,64000	0,24796	0,00061
662,68000	0,23920	0,00033
662,72000	0,23732	0,00047
662,76000	0,23747	0,00036
662,80000	0,24419	0,00036
662,84000	0,22642	0,00044
662,88000	0,23671	0,00047
662,92000	0,23737	0,00040
662,96000	0,23004	0,00023
663,00000	0,23100	0,00031
663,04000	0,22433	0,00042
663,08000	0,22433	0,00036
663,12000	0,23854	0,00032
663,16000	0,23569	0,00041
663,20000	0,23839	0,00023
663,24000	0,24383	0,00061
663,28000	0,23935	0,00034
663,32000	0,24704	0,00033
663,36000	0,24704	0,00051
663,40000	0,23727	0,00052
663,44000	0,24052	0,00042
663,48000	0,24424	0,00031
663,52000	0,24119	0,00038
663,56000	0,24322	0,00038
663,60000	0,25738	0,00046
663,64000	0,25717	0,00034
663,68000	0,24689	0,00025
663,72000	0,24791	0,00034
663,76000	0,25071	0,00042
663,80000	0,24103	0,00027
663,84000	0,23757	0,00042
663,88000	0,24485	0,00041
663,92000	0,25188	0,00038
663,96000	0,25188	0,00038
664,00000	0,24623	0,00036
664,04000	0,25733	0,00027
664,08000	0,25539	0,00036
664,12000	0,25147	0,00047
664,16000	0,26690	0,00046
664,20000	0,24220	0,00050
664,24000	0,24236	0,00025
664,28000	0,26568	0,00023
664,32000	0,25911	0,00034
664,36000	0,26379	0,00041
664,40000	0,27688	0,00040
664,44000	0,25997	0,00053
664,48000	0,26226	0,00052
664,52000	0,26226	0,00052
664,56000	0,26196	0,00032
664,60000	0,27051	0,00044
664,64000	0,27123	0,00044
664,68000	0,26690	0,00040
664,72000	0,27718	0,00058
664,76000	0,28166	0,00023
664,80000	0,27591	0,00052
664,84000	0,27606	0,00033
664,88000	0,27250	0,00051
664,92000	0,26934	0,00034
664,96000	0,26868	0,00059
665,00000	0,26863	0,00036
665,04000	0,27713	0,00031
665,08000	0,28192	0,00031
665,12000	0,28187	0,00042
665,16000	0,26654	0,00046
665,20000	0,26308	0,00031
665,24000	0,27795	0,00041
665,28000	0,26206	0,00038
665,32000	0,26201	0,00036
665,36000	0,26939	0,00041
665,40000	0,26140	0,00053
665,44000	0,26125	0,00041
665,48000	0,27428	0,00044
665,52000	0,27784	0,00044
665,56000	0,27148	0,00033
665,60000	0,27428	0,00044
665,64000	0,27545	0,00065
665,68000	0,26125	0,00052
665,72000	0,26125	0,00041
665,76000	0,27123	0,00050
665,80000	0,27423	0,00048
665,84000	0,27387	0,00041
665,88000	0,26680	0,00041
665,92000	0,27306	0,00038
665,96000	0,28375	0,00038
666,00000	0,26369	0,00503
666,04000	0,26201	0,00036
666,08000	0,27525	0,00027
666,12000	0,25850	0,00038
666,16000	0,26695	0,00031
666,20000	0,26374	0,00025
666,24000	0,27413	0,00053
666,28000	0,26201	0,00048
666,32000	0,26221	0,00069
666,36000	0,26583	0,00047
666,40000	0,27397	0,00052
666,44000	0,26944	0,00040
666,48000	0,25840	0,00060
666,52000	0,25239	0,00044
666,56000	0,26114	0,00041
666,60000	0,26094	0,00072
666,64000	0,25845	0,00048
666,68000	0,25142	0,00023
666,72000	0,25936	0,00027
666,76000	0,24974	0,00056
666,80000	0,25926	0,00033
666,84000	0,25503	0,00034
666,88000	0,24791	0,00034
666,92000	0,24811	0,00071
666,96000	0,24307	0,00048
667,00000	0,23762	0,00050
667,04000	0,23650	0,00023
667,08000	0,25346	0,00040
667,12000	0,23228	0,00046
667,16000	0,22724	0,00050
667,20000	0,22708	0,00034
667,24000	0,23258	0,00040
667,28000	0,22225	0,00046
667,32000	0,22780	0,00053
667,36000	0,22886	0,00056
667,40000	0,23650	0,00023
667,44000	0,23004	0,00023
667,48000	0,23009	0,00025
667,52000	0,22703	0,00052
667,56000	0,22428	0,00023
667,60000	0,22902	0,00068
667,64000	0,22647	0,00040
667,68000	0,22214	0,00044
667,72000	0,22800	0,00040
667,76000	0,22352	0,00034
667,80000	0,22342	0,00051
667,84000	0,21955	0,00056
667,88000	0,23289	0,00053
667,92000	0,23844	0,00038
667,96000	0,22357	0,00034
668,00000	0,22240	0,00046
668,04000	0,22820	0,00046
668,08000	0,22825	0,00020
668,12000	0,22148	0,00057
668,16000	0,23294	0,00023
668,20000	0,22164	0,00038
668,24000	0,21201	0,00036
668,28000	0,21960	0,00044
668,32000	0,22230	0,00027
668,36000	0,21965	0,00027
668,40000	0,21980	0,00031
668,44000	0,22148	0,00076
668,48000	0,21985	0,00040
668,52000	0,21970	0,00039
668,56000	0,21247	0,00044
668,60000	0,21415	0,00048
668,64000	0,21140	0,00051
668,68000	0,21135	0,00047
668,72000	0,21125	0,00052
668,76000	0,21583	0,00034
668,80000	0,21670	0,00027
668,84000	0,21970	0,00046
668,88000	0,22052	0,00041
668,92000	0,21390	0,00034
668,96000	0,21385	0,00041
669,00000	0,22352	0,00041
669,04000	0,21665	0,00046
669,08000	0,20855	0,00036
669,12000	0,21512	0,00051
669,16000	0,20916	0,00056
669,20000	0,21486	0,00041
669,24000	0,21191	0,00046
669,28000	0,21211	0,00027
669,32000	0,21670	0,00027
669,36000	0,21196	0,00038
669,40000	0,21782	0,00065
669,44000	0,22128	0,00048
669,48000	0,21283	0,00052
669,52000	0,22143	0,00057
669,56000	0,22158	0,00023
669,60000	0,20555	0,00038
669,64000	0,19709	0,00052
669,68000	0,21217	0,00020
669,72000	0,22235	0,00031
669,76000	0,21079	0,00047
669,80000	0,21690	0,00052
669,84000	0,21486	0,00047
669,88000	0,21476	0,00033
669,92000	0,20936	0,00023
669,96000	0,20270	0,00052
670,00000	0,21603	0,00044
670,04000	0,21018	0,00046
670,08000	0,20631	0,00040
670,12000	0,20819	0,00061
670,16000	0,20830	0,00025
670,20000	0,21181	0,00061
670,24000	0,20891	0,00055
670,28000	0,22052	0,00047
670,32000	0,20458	0,00046
670,36000	0,21181	0,00034
670,40000	0,20560	0,00040
670,44000	0,20550	0,00053
670,48000	0,20814	0,00033
670,52000	0,20840	0,00059
670,56000	0,21568	0,00042
670,60000	0,20819	0,00034
670,64000	0,19918	0,00040
670,68000	0,21710	0,00027
670,72000	0,20768	0,00052
670,76000	0,20728	0,00025
670,80000	0,20239	0,00032
670,84000	0,20443	0,00023
670,88000	0,20926	0,00057
670,92000	0,20336	0,00036
670,96000	0,20611	0,00033
671,00000	0,20555	0,00031
671,04000	0,20570	0,00057
671,08000	0,20712	0,00033
671,12000	0,20382	0,00050
671,16000	0,20631	0,00040
671,20000	0,21298	0,00038
671,24000	0,20341	0,00032
671,28000	0,20931	0,00041
671,32000	0,20901	0,00039
671,36000	0,20438	0,00036
671,40000	0,20453	0,00044
671,44000	0,20168	0,00025
671,48000	0,20438	0,00027
671,52000	0,21018	0,00023
671,56000	0,19786	0,00058
671,60000	0,20830	0,00061
671,64000	0,20819	0,00034
671,68000	0,20458	0,00051
671,72000	0,21110	0,00048
671,76000	0,19409	0,00040
671,80000	0,20555	0,00064
671,84000	0,20432	0,00055
671,88000	0,21003	0,00039
671,92000	0,21018	0,00033
671,96000	0,20086	0,00032
672,00000	0,20570	0,00047
672,04000	0,20178	0,00031
672,08000	0,19531	0,00048
672,12000	0,19317	0,00042
672,16000	0,20891	0,00038
672,20000	0,20830	0,00034
672,24000	0,20819	0,00052
672,28000	0,20163	0,00047
672,32000	0,20081	0,00048
672,36000	0,19862	0,00041
672,40000	0,19496	0,00047
672,44000	0,19898	0,00033
672,48000	0,19913	0,00034
672,52000	0,19852	0,00034
672,56000	0,20173	0,00033
672,60000	0,19328	0,00048
672,64000	0,19974	0,00031
672,68000	0,20091	0,00027
672,72000	0,20005	0,00025
672,76000	0,20000	0,00023
672,80000	0,19989	0,00036
672,84000	0,20336	0,00048
672,88000	0,20555	0,00055
672,92000	0,20448	0,00027
672,96000	0,19995	0,00038
673,00000	0,19414	0,00055
673,04000	0,20636	0,00031
673,08000	0,20361	0,00047
673,12000	0,20376	0,00023
673,16000	0,19536	0,00044
673,20000	0,19236	0,00040
673,24000	0,20458	0,00060
673,28000	0,20234	0,00036
673,32000	0,19526	0,00051
673,36000	0,20453	0,00055
673,40000	0,20458	0,00040
673,44000	0,19618	0,00031
673,48000	0,19984	0,00023
673,52000	0,19623	0,00036
673,56000	0,20208	0,00047
673,60000	0,19720	0,00038
673,64000	0,19816	0,00046
673,68000	0,20178	0,00020
673,72000	0,20188	0,00023
673,76000	0,20010	0,00025
673,80000	0,19144	0,00057
673,84000	0,20916	0,00033
673,88000	0,19704	0,00047
673,92000	0,19608	0,00041
673,96000	0,19511	0,00056
674,00000	0,19536	0,00031
674,04000	0,19221	0,00039
674,08000	0,19043	0,00034
674,12000	0,19526	0,00046
674,16000	0,19149	0,00052
674,20000	0,19689	0,00044
674,24000	0,19745	0,00051
674,28000	0,19699	0,00047
674,32000	0,19343	0,00052
674,36000	0,19032	0,00056
674,40000	0,19709	0,00034
674,44000	0,19058	0,00020
674,48000	0,20651	0,00048
674,52000	0,20183	0,00027
674,56000	0,19699	0,00065
674,60000	0,19709	0,00047
674,64000	0,19618	0,00038
674,68000	0,18732	0,00052
674,72000	0,19903	0,00047
674,76000	0,18498	0,00055
674,80000	0,19424	0,00046
674,84000	0,19984	0,00023
674,88000	0,19979	0,00048
674,92000	0,18844	0,00034
674,96000	0,19129	0,00031
