angle-spectrum Gruppe 304.dat
04.10.2021
13:15:38
Gruppe 3
 Temp: NON
angel	 rel signal 	s (std. deviation)				
60,01000	0,95460	0,00069
60,02000	0,03777	0,00937
60,03000	0,03303	0,00764
60,04000	0,04006	0,00806
60,05000	0,03855	0,00365
60,06000	0,04161	0,00753
60,07000	0,01146	0,00920
60,08000	0,84222	0,00090
60,09000	0,89597	0,00064
60,10000	0,92753	0,00084
60,11000	0,94465	0,00066
60,12000	0,95926	0,00068
60,13000	0,97232	0,00072
60,14000	0,98211	0,00056
60,15000	0,98948	0,00060
60,16000	0,99470	0,00107
60,17000	0,99569	0,00066
60,18000	0,99151	0,00071
60,19000	0,98474	0,00084
60,20000	0,97629	0,00069
60,21000	0,96461	0,00043
60,22000	0,95008	0,00052
60,23000	0,93318	0,00069
60,24000	0,90425	0,00069
60,25000	0,85627	0,00057
60,26000	0,00124	0,00462
60,27000	0,00113	0,00553
60,28000	0,00255	0,00457
60,29000	0,01682	0,00915
60,30000	0,01928	0,00899
60,31000	0,02135	0,00805
60,32000	0,02372	0,00725
60,33000	0,02631	0,00466
60,34000	0,02764	0,00342
60,35000	0,02790	0,00312
60,36000	0,02691	0,00277
60,37000	0,02730	0,00305
60,38000	0,02764	0,00364
60,39000	0,02777	0,00323
60,40000	0,02712	0,00286
60,41000	0,02833	0,00327
60,42000	0,03165	0,00678
60,43000	0,03639	0,00971
60,44000	0,03743	0,00939
60,45000	0,79785	0,00107
60,46000	0,88537	0,00083
60,47000	0,92055	0,00104
60,48000	0,94434	0,00079
60,49000	0,96103	0,00038
60,50000	0,97331	0,00074
60,51000	0,98254	0,00063
60,52000	0,99043	0,00086
60,53000	0,99491	0,00058
60,54000	0,99556	0,00084
60,55000	0,99289	0,00063
60,56000	0,98711	0,00113
60,57000	0,97793	0,00064
60,58000	0,96633	0,00075
60,59000	0,95284	0,00084
60,60000	0,93072	0,00077
60,61000	0,89938	0,00050
60,62000	0,82320	0,00084
60,63000	0,01208	0,00920
60,64000	0,00747	0,00940
60,65000	0,00553	0,00867
60,66000	0,00441	0,00792
60,67000	0,00225	0,00740
60,68000	0,00031	0,00626
60,69000	0,00271	0,00339
60,70000	0,00176	0,00328
60,71000	0,00814	0,00867
60,72000	0,01068	0,00978
60,73000	0,01103	0,00921
60,74000	0,01172	0,00860
60,75000	0,01405	0,00798
60,76000	0,01581	0,00675
60,77000	0,01396	0,00559
60,78000	0,01224	0,00404
60,79000	0,01293	0,00338
60,80000	0,01236	0,00395
60,81000	0,81872	0,00087
60,82000	0,88921	0,00084
60,83000	0,91408	0,00064
60,84000	0,93408	0,00068
60,85000	0,95064	0,00078
60,86000	0,96586	0,00084
60,87000	0,97685	0,00098
60,88000	0,98560	0,00084
60,89000	0,99280	0,00081
60,90000	0,99556	0,00079
60,91000	0,99556	0,00069
60,92000	0,99060	0,00075
60,93000	0,98401	0,00075
60,94000	0,97456	0,00050
60,95000	0,96017	0,00046
60,96000	0,94999	0,00054
60,97000	0,92645	0,00080
60,98000	0,89662	0,00075
60,99000	0,83933	0,00077
61,00000	0,00626	0,00597
61,01000	0,00880	0,00704
61,02000	0,01001	0,00783
61,03000	0,00264	0,00518
61,04000	0,00432	0,00486
61,05000	0,00574	0,00559
61,06000	0,00790	0,00692
61,07000	0,01079	0,00814
61,08000	0,01579	0,00950
61,09000	0,01820	0,00913
61,10000	0,01993	0,00885
61,11000	0,02299	0,00743
61,12000	0,02764	0,00304
61,13000	0,02846	0,00343
61,14000	0,03144	0,00604
61,15000	0,03527	0,00969
61,16000	0,03682	0,01017
61,17000	0,03743	0,00917
61,18000	0,80186	0,00073
61,19000	0,88722	0,00073
61,20000	0,91826	0,00067
61,21000	0,94314	0,00063
61,22000	0,95741	0,00062
61,23000	0,97129	0,00052
61,24000	0,98181	0,00055
61,25000	0,99013	0,00083
61,26000	0,99543	0,00052
61,27000	0,99672	0,00082
61,28000	0,99496	0,00060
61,29000	0,98927	0,00074
61,30000	0,98038	0,00078
61,31000	0,97094	0,00088
61,32000	0,95719	0,00064
61,33000	0,94094	0,00050
61,34000	0,91339	0,00078
61,35000	0,87472	0,00075
61,36000	0,74608	0,00155
61,37000	0,00404	0,00374
61,38000	0,01047	0,00985
61,39000	0,01172	0,00904
61,40000	0,01439	0,00794
61,41000	0,01491	0,00629
61,42000	0,01293	0,00409
61,43000	0,01189	0,00510
61,44000	0,00853	0,00429
61,45000	0,01107	0,00468
61,46000	0,00861	0,00418
61,47000	0,00654	0,00293
61,48000	0,00344	0,00388
61,49000	0,00232	0,00347
61,50000	0,00078	0,00560
61,51000	0,00445	0,00564
61,52000	0,00734	0,00646
61,53000	0,01501	0,00931
61,54000	0,01885	0,00908
61,55000	0,85071	0,00064
61,56000	0,90149	0,00074
61,57000	0,93068	0,00087
61,58000	0,94840	0,00060
61,59000	0,96301	0,00075
61,60000	0,97469	0,00071
61,61000	0,98362	0,00072
61,62000	0,99172	0,00064
61,63000	0,99565	0,00064
61,64000	0,99552	0,00066
61,65000	0,99233	0,00065
61,66000	0,98651	0,00051
61,67000	0,97801	0,00050
61,68000	0,96767	0,00063
61,69000	0,95590	0,00069
61,70000	0,94189	0,00073
61,71000	0,92115	0,00074
61,72000	0,88537	0,00049
61,73000	0,81592	0,00100
61,74000	0,00824	0,00928
61,75000	0,00488	0,00851
61,76000	0,00820	0,00939
61,77000	0,00197	0,00334
61,78000	0,00215	0,00308
61,79000	0,00663	0,00751
61,80000	0,01094	0,00961
61,81000	0,01340	0,00858
61,82000	0,01586	0,00686
61,83000	0,01327	0,00405
61,84000	0,01314	0,00308
61,85000	0,01129	0,00521
61,86000	0,00827	0,00439
61,87000	0,01086	0,00428
61,88000	0,00836	0,00405
61,89000	0,00577	0,00372
61,90000	0,00361	0,00320
61,91000	0,83704	0,00066
61,92000	0,88921	0,00074
61,93000	0,92257	0,00055
61,94000	0,94051	0,00077
61,95000	0,95521	0,00056
61,96000	0,96650	0,00037
61,97000	0,97819	0,00044
61,98000	0,98672	0,00067
61,99000	0,99392	0,00058
62,00000	0,99621	0,00055
62,01000	0,99547	0,00056
62,02000	0,99414	0,00073
62,03000	0,98806	0,00060
62,04000	0,98056	0,00079
62,05000	0,96823	0,00060
62,06000	0,95508	0,00067
62,07000	0,93947	0,00072
62,08000	0,92111	0,00084
62,09000	0,89623	0,00077
62,10000	0,85575	0,00084
62,11000	0,02924	0,00364
62,12000	0,02781	0,00395
62,13000	0,02350	0,00495
62,14000	0,02049	0,00570
62,15000	0,00324	0,00787
62,16000	0,00699	0,00939
62,17000	0,00397	0,00819
62,18000	0,00085	0,00556
62,19000	0,00624	0,00652
62,20000	0,01068	0,00990
62,21000	0,00620	0,00652
62,22000	0,01521	0,00737
62,23000	0,01267	0,00425
62,24000	0,01267	0,00422
62,25000	0,01280	0,00383
62,26000	0,01103	0,00470
62,27000	0,79660	0,00089
62,28000	0,87364	0,00064
62,29000	0,91011	0,00078
62,30000	0,93107	0,00068
62,31000	0,94788	0,00068
62,32000	0,96090	0,00071
62,33000	0,97344	0,00062
62,34000	0,98301	0,00057
62,35000	0,99065	0,00060
62,36000	0,99556	0,00064
62,37000	0,99810	0,00072
62,38000	0,99754	0,00071
62,39000	0,99254	0,00064
62,40000	0,98689	0,00081
62,41000	0,97793	0,00079
62,42000	0,96672	0,00070
62,43000	0,95249	0,00077
62,44000	0,93684	0,00063
62,45000	0,91783	0,00080
62,46000	0,88606	0,00058
62,47000	0,80432	0,00074
62,48000	0,03312	0,00416
62,49000	0,03083	0,00361
62,50000	0,02911	0,00353
62,51000	0,03256	0,00325
62,52000	0,02950	0,00377
62,53000	0,02876	0,00349
62,54000	0,02730	0,00432
62,55000	0,02441	0,00576
62,56000	0,00936	0,00931
62,57000	0,01941	0,00603
62,58000	0,01359	0,00838
62,59000	0,00803	0,00924
62,60000	0,00484	0,00848
62,61000	0,00156	0,00695
62,62000	0,00241	0,00320
62,63000	0,00633	0,00643
62,64000	0,83256	0,00060
62,65000	0,88127	0,00069
62,66000	0,91387	0,00075
62,67000	0,93689	0,00086
62,68000	0,95215	0,00074
62,69000	0,96486	0,00056
62,70000	0,97642	0,00090
62,71000	0,98612	0,00067
62,72000	0,99297	0,00064
62,73000	0,99681	0,00084
62,74000	0,99828	0,00046
62,75000	0,99681	0,00079
62,76000	0,99233	0,00075
62,77000	0,98495	0,00056
62,78000	0,97603	0,00055
62,79000	0,96564	0,00071
62,80000	0,95271	0,00077
62,81000	0,93990	0,00057
62,82000	0,91641	0,00049
62,83000	0,88619	0,00072
62,84000	0,82704	0,00075
62,85000	0,00669	0,00590
62,86000	0,02031	0,00862
62,87000	0,02113	0,00791
62,88000	0,02087	0,00824
62,89000	0,02109	0,00823
62,90000	0,02092	0,00836
62,91000	0,02001	0,00889
62,92000	0,02001	0,00851
62,93000	0,02010	0,00858
62,94000	0,00583	0,00554
62,95000	0,00591	0,00548
62,96000	0,00566	0,00583
62,97000	0,00484	0,00511
62,98000	0,00466	0,00549
62,99000	0,00471	0,00480
63,00000	0,00423	0,00526
63,01000	0,78897	0,00063
63,02000	0,87213	0,00065
63,03000	0,90813	0,00084
63,04000	0,93387	0,00057
63,05000	0,94874	0,00078
63,06000	0,96155	0,00079
63,07000	0,97172	0,00082
63,08000	0,98207	0,00055
63,09000	0,98871	0,00061
63,10000	0,99509	0,00050
63,11000	0,99832	0,00083
63,12000	0,99853	0,00057
63,13000	0,99526	0,00050
63,14000	0,99008	0,00074
63,15000	0,98176	0,00043
63,16000	0,97258	0,00078
63,17000	0,95965	0,00062
63,18000	0,94564	0,00051
63,19000	0,92671	0,00060
63,20000	0,89934	0,00056
63,21000	0,85640	0,00079
63,22000	0,40740	0,01581
63,23000	0,01590	0,00670
63,24000	0,01137	0,00953
63,25000	0,01086	0,00971
63,26000	0,01504	0,00763
63,27000	0,01111	0,00958
63,28000	0,01504	0,00797
63,29000	0,01581	0,00716
63,30000	0,01564	0,00690
63,31000	0,01607	0,00698
63,32000	0,01620	0,00647
63,33000	0,01620	0,00712
63,34000	0,01612	0,00706
63,35000	0,01504	0,00596
63,36000	0,01379	0,00535
63,37000	0,01456	0,00800
63,38000	0,72013	0,00158
63,39000	0,86166	0,00056
63,40000	0,90326	0,00094
63,41000	0,93055	0,00069
63,42000	0,94715	0,00065
63,43000	0,96189	0,00072
63,44000	0,97327	0,00077
63,45000	0,98297	0,00063
63,46000	0,99052	0,00077
63,47000	0,99582	0,00071
63,48000	0,99918	0,00078
63,49000	0,99931	0,00062
63,50000	0,99694	0,00051
63,51000	0,99211	0,00064
63,52000	0,98383	0,00078
63,53000	0,97478	0,00056
63,54000	0,96275	0,00094
63,55000	0,94999	0,00090
63,56000	0,93296	0,00063
63,57000	0,90787	0,00077
63,58000	0,87257	0,00055
63,59000	0,77777	0,00063
63,60000	0,01465	0,00607
63,61000	0,01538	0,00737
63,62000	0,01599	0,00707
63,63000	0,01586	0,00707
63,64000	0,01443	0,00820
63,65000	0,01374	0,00802
63,66000	0,01267	0,00917
63,67000	0,01172	0,00923
63,68000	0,01137	0,00927
63,69000	0,01129	0,00899
63,70000	0,01577	0,00676
63,71000	0,01624	0,00743
63,72000	0,01568	0,00706
63,73000	0,01271	0,00407
63,74000	0,01474	0,00788
63,75000	0,80225	0,00066
63,76000	0,87425	0,00077
63,77000	0,90546	0,00079
63,78000	0,93025	0,00065
63,79000	0,94663	0,00075
63,80000	0,95900	0,00079
63,81000	0,97086	0,00087
63,82000	0,98116	0,00060
63,83000	0,98935	0,00071
63,84000	0,99504	0,00049
63,85000	0,99892	0,00068
63,86000	1,00000	0,00072
63,87000	0,99797	0,00081
63,88000	0,99340	0,00069
63,89000	0,98715	0,00070
63,90000	0,97926	0,00079
63,91000	0,96874	0,00083
63,92000	0,95728	0,00075
63,93000	0,94460	0,00074
63,94000	0,92831	0,00084
63,95000	0,90300	0,00074
63,96000	0,86752	0,00051
63,97000	0,79234	0,00066
63,98000	0,00305	0,00372
63,99000	0,00206	0,00458
64,00000	0,00229	0,00487
64,01000	0,00180	0,00441
64,02000	0,00225	0,00538
64,03000	0,00600	0,00603
64,04000	0,01389	0,00911
64,05000	0,01954	0,00904
64,06000	0,02268	0,00744
64,07000	0,02743	0,00413
64,08000	0,02743	0,00317
64,09000	0,02812	0,00267
64,10000	0,03152	0,00568
64,11000	0,03678	0,00965
64,12000	0,83700	0,00088
64,13000	0,88761	0,00066
64,14000	0,91524	0,00093
64,15000	0,93546	0,00066
64,16000	0,95034	0,00075
64,17000	0,96146	0,00079
64,18000	0,97206	0,00073
64,19000	0,98077	0,00075
64,20000	0,98832	0,00051
64,21000	0,99418	0,00074
64,22000	0,99845	0,00067
64,23000	0,99909	0,00064
64,24000	0,99728	0,00075
64,25000	0,99228	0,00063
64,26000	0,98521	0,00079
64,27000	0,97650	0,00074
64,28000	0,96637	0,00060
64,29000	0,95430	0,00046
64,30000	0,94072	0,00049
64,31000	0,92658	0,00064
64,32000	0,90533	0,00073
64,33000	0,87515	0,00067
64,34000	0,83390	0,00058
64,35000	0,00732	0,00702
64,36000	0,01094	0,00950
64,37000	0,01167	0,00910
64,38000	0,01396	0,00788
64,39000	0,01594	0,00698
64,40000	0,01361	0,00466
64,41000	0,01297	0,00350
64,42000	0,01129	0,00511
64,43000	0,01297	0,00410
64,44000	0,01241	0,00488
64,45000	0,00961	0,00528
64,46000	0,00805	0,00432
64,47000	0,74845	0,00096
64,48000	0,85192	0,00087
64,49000	0,89054	0,00056
64,50000	0,91274	0,00072
64,51000	0,93007	0,00086
64,52000	0,94469	0,00069
64,53000	0,95754	0,00056
64,54000	0,96896	0,00066
64,55000	0,97896	0,00055
64,56000	0,98750	0,00084
64,57000	0,99349	0,00075
64,58000	0,99746	0,00078
64,59000	0,99931	0,00067
64,60000	0,99797	0,00060
64,61000	0,99448	0,00091
64,62000	0,98797	0,00049
64,63000	0,98021	0,00074
64,64000	0,96948	0,00082
64,65000	0,95762	0,00064
64,66000	0,94430	0,00079
64,67000	0,93089	0,00084
64,68000	0,91382	0,00074
64,69000	0,88615	0,00075
64,70000	0,85010	0,00102
64,71000	0,75690	0,00074
64,72000	0,04178	0,00646
64,73000	0,03290	0,00308
64,74000	0,03674	0,00471
64,75000	0,03859	0,00321
64,76000	0,03376	0,00366
64,77000	0,03256	0,00315
64,78000	0,03092	0,00414
64,79000	0,02958	0,00339
64,80000	0,02859	0,00348
64,81000	0,02583	0,00551
64,82000	0,02273	0,00480
64,83000	0,82178	0,00096
64,84000	0,86756	0,00064
64,85000	0,90037	0,00069
64,86000	0,92395	0,00094
64,87000	0,93827	0,00070
64,88000	0,95150	0,00074
64,89000	0,96236	0,00051
64,90000	0,97215	0,00089
64,91000	0,98142	0,00058
64,92000	0,98901	0,00049
64,93000	0,99474	0,00067
64,94000	0,99810	0,00066
64,95000	0,99884	0,00081
64,96000	0,99616	0,00056
64,97000	0,99185	0,00056
64,98000	0,98388	0,00079
64,99000	0,97521	0,00049
65,00000	0,96560	0,00080
65,01000	0,95404	0,00058
65,02000	0,94159	0,00074
65,03000	0,92546	0,00068
65,04000	0,90335	0,00090
65,05000	0,87675	0,00074
65,06000	0,82178	0,00069
65,07000	0,00732	0,00364
65,08000	0,00654	0,00350
65,09000	0,00568	0,00326
65,10000	0,00417	0,00369
65,11000	0,00331	0,00355
65,12000	0,00400	0,00326
65,13000	0,00301	0,00335
65,14000	0,00206	0,00357
65,15000	0,00016	0,00531
65,16000	0,00229	0,00519
65,17000	0,00389	0,00502
65,18000	0,76229	0,00148
65,19000	0,85424	0,00058
65,20000	0,88709	0,00063
65,21000	0,91727	0,00096
65,22000	0,93641	0,00068
65,23000	0,94922	0,00108
65,24000	0,96012	0,00068
65,25000	0,97137	0,00072
65,26000	0,98151	0,00049
65,27000	0,98883	0,00078
65,28000	0,99474	0,00061
65,29000	0,99810	0,00060
65,30000	0,99996	0,00079
65,31000	0,99741	0,00077
65,32000	0,99332	0,00063
65,33000	0,98754	0,00056
65,34000	0,97922	0,00077
65,35000	0,96935	0,00069
65,36000	0,95728	0,00051
65,37000	0,94551	0,00090
65,38000	0,92878	0,00058
65,39000	0,90817	0,00079
65,40000	0,88140	0,00064
65,41000	0,83372	0,00060
65,42000	0,05959	0,00465
65,43000	0,03083	0,00386
65,44000	0,02932	0,00388
65,45000	0,02876	0,00311
65,46000	0,02549	0,00522
65,47000	0,02195	0,00472
65,48000	0,01980	0,00542
65,49000	0,01669	0,00720
65,50000	0,02152	0,00585
65,51000	0,01975	0,00582
65,52000	0,01354	0,00863
65,53000	0,72694	0,00329
65,54000	0,84377	0,00090
65,55000	0,88149	0,00078
65,56000	0,91016	0,00072
65,57000	0,93128	0,00069
65,58000	0,94659	0,00074
65,59000	0,95779	0,00068
65,60000	0,96823	0,00046
65,61000	0,97780	0,00083
65,62000	0,98551	0,00078
65,63000	0,99250	0,00063
65,64000	0,99737	0,00075
65,65000	0,99935	0,00074
65,66000	0,99819	0,00055
65,67000	0,99517	0,00043
65,68000	0,98922	0,00084
65,69000	0,98125	0,00083
65,70000	0,97250	0,00075
65,71000	0,96211	0,00074
65,72000	0,95098	0,00060
65,73000	0,93740	0,00070
65,74000	0,91943	0,00063
65,75000	0,89619	0,00062
65,76000	0,86437	0,00052
65,77000	0,80893	0,00051
65,78000	0,00331	0,00337
65,79000	0,00202	0,00411
65,80000	0,00081	0,00481
65,81000	0,00824	0,00652
65,82000	0,01139	0,00845
65,83000	0,01626	0,00943
65,84000	0,01824	0,00932
65,85000	0,02040	0,00856
65,86000	0,02182	0,00794
65,87000	0,02475	0,00624
65,88000	0,77751	0,00100
65,89000	0,84842	0,00073
65,90000	0,88429	0,00060
65,91000	0,91007	0,00065
65,92000	0,93102	0,00072
65,93000	0,94684	0,00051
65,94000	0,95805	0,00064
65,95000	0,96814	0,00049
65,96000	0,97689	0,00099
65,97000	0,98483	0,00079
65,98000	0,99099	0,00078
65,99000	0,99612	0,00084
66,00000	0,99836	0,00070
66,01000	0,99879	0,00082
66,02000	0,99659	0,00074
66,03000	0,99172	0,00070
66,04000	0,98504	0,00060
66,05000	0,97694	0,00056
66,06000	0,96706	0,00077
66,07000	0,95607	0,00068
66,08000	0,94430	0,00064
66,09000	0,93038	0,00074
66,10000	0,91249	0,00063
66,11000	0,88925	0,00078
66,12000	0,85735	0,00056
66,13000	0,80674	0,00100
66,14000	0,00272	0,00689
66,15000	0,00090	0,00480
66,16000	0,00245	0,00298
66,17000	0,00180	0,00261
66,18000	0,00241	0,00294
66,19000	0,00486	0,00469
66,20000	0,00883	0,00888
66,21000	0,01077	0,00903
66,22000	0,61313	0,00829
66,23000	0,82687	0,00078
66,24000	0,86429	0,00067
66,25000	0,89076	0,00074
66,26000	0,91425	0,00056
66,27000	0,93145	0,00084
66,28000	0,94340	0,00075
66,29000	0,95465	0,00070
66,30000	0,96530	0,00063
66,31000	0,97500	0,00046
66,32000	0,98327	0,00078
66,33000	0,99065	0,00081
66,34000	0,99513	0,00075
66,35000	0,99862	0,00058
66,36000	0,99940	0,00096
66,37000	0,99733	0,00072
66,38000	0,99297	0,00069
66,39000	0,98646	0,00069
66,40000	0,98056	0,00069
66,41000	0,97142	0,00084
66,42000	0,96142	0,00049
66,43000	0,95008	0,00084
66,44000	0,93852	0,00065
66,45000	0,92654	0,00038
66,46000	0,91257	0,00067
66,47000	0,89136	0,00060
66,48000	0,86519	0,00090
66,49000	0,83290	0,00078
66,50000	0,78195	0,00070
66,51000	0,18974	0,01115
66,52000	0,02906	0,00331
66,53000	0,03299	0,00777
66,54000	0,03644	0,01002
66,55000	0,13378	0,01607
66,56000	0,77712	0,00074
66,57000	0,82316	0,00061
66,58000	0,86153	0,00075
66,59000	0,88489	0,00050
66,60000	0,90533	0,00067
66,61000	0,91921	0,00063
66,62000	0,93240	0,00062
66,63000	0,94387	0,00061
66,64000	0,95564	0,00087
66,65000	0,96474	0,00058
66,66000	0,97452	0,00075
66,67000	0,98168	0,00074
66,68000	0,98901	0,00063
66,69000	0,99396	0,00072
66,70000	0,99759	0,00067
66,71000	0,99901	0,00064
66,72000	0,99815	0,00084
66,73000	0,99565	0,00079
66,74000	0,99060	0,00093
66,75000	0,98353	0,00067
66,76000	0,97495	0,00064
66,77000	0,96560	0,00084
66,78000	0,95564	0,00083
66,79000	0,94383	0,00075
66,80000	0,93270	0,00075
66,81000	0,91977	0,00051
66,82000	0,90748	0,00070
66,83000	0,88916	0,00075
66,84000	0,86976	0,00079
66,85000	0,84381	0,00084
66,86000	0,81066	0,00070
66,87000	0,75186	0,00185
66,88000	0,49393	0,01691
66,89000	0,61916	0,00771
66,90000	0,74996	0,00098
66,91000	0,80497	0,00098
66,92000	0,84097	0,00068
66,93000	0,86597	0,00078
66,94000	0,88610	0,00047
66,95000	0,90317	0,00070
66,96000	0,92059	0,00061
66,97000	0,93201	0,00071
66,98000	0,94271	0,00078
66,99000	0,95331	0,00069
67,00000	0,96284	0,00077
67,01000	0,97163	0,00075
67,02000	0,97995	0,00092
67,03000	0,98651	0,00107
67,04000	0,99302	0,00067
67,05000	0,99681	0,00063
67,06000	0,99927	0,00077
67,07000	0,99836	0,00093
67,08000	0,99565	0,00051
67,09000	0,99155	0,00062
67,10000	0,98474	0,00074
67,11000	0,97741	0,00090
67,12000	0,96862	0,00067
67,13000	0,95956	0,00044
67,14000	0,95008	0,00080
67,15000	0,93921	0,00063
67,16000	0,92693	0,00049
67,17000	0,91236	0,00084
67,18000	0,89326	0,00078
67,19000	0,87144	0,00047
67,20000	0,84553	0,00079
67,21000	0,80919	0,00093
67,22000	0,72513	0,00119
67,23000	0,00236	0,00348
67,24000	0,09899	0,00373
67,25000	0,61890	0,00404
67,26000	0,77091	0,00079
67,27000	0,82299	0,00080
67,28000	0,85407	0,00056
67,29000	0,87653	0,00077
67,30000	0,89533	0,00067
67,31000	0,91266	0,00070
67,32000	0,93003	0,00051
67,33000	0,94184	0,00087
67,34000	0,95327	0,00054
67,35000	0,96206	0,00098
67,36000	0,97073	0,00056
67,37000	0,97888	0,00069
67,38000	0,98556	0,00078
67,39000	0,99155	0,00048
67,40000	0,99625	0,00077
67,41000	0,99858	0,00058
67,42000	0,99901	0,00064
67,43000	0,99754	0,00086
67,44000	0,99375	0,00096
67,45000	0,98754	0,00074
67,46000	0,98116	0,00060
67,47000	0,97219	0,00074
67,48000	0,96361	0,00060
67,49000	0,95361	0,00073
67,50000	0,94318	0,00058
67,51000	0,92792	0,00088
67,52000	0,91236	0,00051
67,53000	0,89447	0,00082
67,54000	0,87718	0,00056
67,55000	0,85610	0,00070
67,56000	0,82933	0,00068
67,57000	0,79135	0,00098
67,58000	0,71750	0,00088
67,59000	0,63447	0,00406
67,60000	0,72901	0,00121
67,61000	0,79648	0,00100
67,62000	0,83454	0,00070
67,63000	0,86075	0,00069
67,64000	0,88123	0,00068
67,65000	0,89843	0,00048
67,66000	0,91516	0,00067
67,67000	0,93085	0,00090
67,68000	0,94348	0,00084
67,69000	0,95258	0,00081
67,70000	0,96129	0,00065
67,71000	0,96965	0,00077
67,72000	0,97763	0,00068
67,73000	0,98452	0,00078
67,74000	0,98974	0,00065
67,75000	0,99457	0,00075
67,76000	0,99737	0,00088
67,77000	0,99819	0,00072
67,78000	0,99685	0,00092
67,79000	0,99379	0,00066
67,80000	0,98819	0,00042
67,81000	0,98232	0,00069
67,82000	0,97504	0,00083
67,83000	0,96689	0,00082
67,84000	0,95870	0,00070
67,85000	0,95008	0,00070
67,86000	0,94012	0,00049
67,87000	0,92645	0,00052
67,88000	0,91080	0,00074
67,89000	0,89386	0,00077
67,90000	0,87657	0,00075
67,91000	0,85821	0,00056
67,92000	0,84109	0,00093
67,93000	0,82157	0,00074
67,94000	0,81044	0,00086
67,95000	0,81113	0,00079
67,96000	0,82247	0,00084
67,97000	0,84058	0,00034
67,98000	0,85812	0,00051
67,99000	0,87511	0,00071
68,00000	0,88990	0,00079
68,01000	0,90649	0,00074
68,02000	0,92016	0,00070
68,03000	0,93288	0,00046
68,04000	0,94396	0,00060
68,05000	0,95245	0,00092
68,06000	0,96163	0,00063
68,07000	0,96974	0,00072
68,08000	0,97672	0,00086
68,09000	0,98327	0,00067
68,10000	0,98866	0,00058
68,11000	0,99349	0,00079
68,12000	0,99621	0,00073
68,13000	0,99754	0,00054
68,14000	0,99681	0,00079
68,15000	0,99444	0,00056
68,16000	0,99052	0,00077
68,17000	0,98414	0,00062
68,18000	0,97784	0,00063
68,19000	0,96991	0,00070
68,20000	0,96159	0,00079
68,21000	0,95340	0,00079
68,22000	0,94525	0,00110
68,23000	0,93568	0,00079
68,24000	0,92555	0,00060
68,25000	0,91141	0,00049
68,26000	0,89964	0,00087
68,27000	0,88804	0,00054
68,28000	0,87722	0,00062
68,29000	0,86830	0,00049
68,30000	0,86200	0,00069
68,31000	0,85963	0,00055
68,32000	0,86299	0,00065
68,33000	0,87114	0,00056
68,34000	0,88093	0,00082
68,35000	0,89274	0,00082
68,36000	0,90438	0,00058
68,37000	0,91654	0,00073
68,38000	0,92792	0,00064
68,39000	0,93646	0,00074
68,40000	0,94421	0,00088
68,41000	0,95353	0,00070
68,42000	0,96064	0,00058
68,43000	0,96823	0,00037
68,44000	0,97569	0,00077
68,45000	0,98250	0,00052
68,46000	0,98896	0,00055
68,47000	0,99323	0,00077
68,48000	0,99668	0,00071
68,49000	0,99750	0,00075
68,50000	0,99836	0,00070
68,51000	0,99603	0,00070
68,52000	0,99224	0,00046
68,53000	0,98836	0,00063
68,54000	0,98168	0,00063
68,55000	0,97569	0,00066
68,56000	0,96818	0,00052
68,57000	0,96004	0,00054
68,58000	0,95116	0,00069
68,59000	0,94301	0,00047
68,60000	0,93482	0,00070
68,61000	0,92667	0,00069
68,62000	0,91934	0,00058
68,63000	0,91201	0,00069
68,64000	0,90438	0,00065
68,65000	0,89697	0,00084
68,66000	0,89369	0,00070
68,67000	0,89231	0,00052
68,68000	0,89205	0,00060
68,69000	0,89580	0,00077
68,70000	0,89994	0,00064
68,71000	0,90563	0,00063
68,72000	0,91197	0,00077
68,73000	0,91843	0,00084
68,74000	0,92602	0,00067
68,75000	0,93404	0,00050
68,76000	0,94184	0,00068
68,77000	0,94965	0,00062
68,78000	0,95758	0,00086
68,79000	0,96422	0,00079
68,80000	0,97068	0,00060
68,81000	0,97702	0,00079
68,82000	0,98228	0,00069
68,83000	0,98763	0,00071
68,84000	0,99177	0,00079
68,85000	0,99530	0,00056
68,86000	0,99711	0,00071
68,87000	0,99668	0,00077
68,88000	0,99487	0,00063
68,89000	0,99112	0,00070
68,90000	0,98595	0,00080
68,91000	0,98017	0,00094
68,92000	0,97357	0,00088
68,93000	0,96698	0,00065
68,94000	0,95913	0,00078
68,95000	0,95137	0,00082
68,96000	0,94417	0,00083
68,97000	0,93598	0,00068
68,98000	0,92779	0,00063
68,99000	0,92076	0,00058
69,00000	0,91305	0,00066
69,01000	0,90511	0,00064
69,02000	0,89873	0,00063
69,03000	0,89438	0,00069
69,04000	0,89231	0,00058
69,05000	0,89352	0,00063
69,06000	0,89597	0,00058
69,07000	0,90158	0,00075
69,08000	0,90852	0,00067
69,09000	0,91568	0,00073
69,10000	0,92464	0,00073
69,11000	0,93266	0,00055
69,12000	0,94029	0,00056
69,13000	0,94797	0,00071
69,14000	0,95529	0,00081
69,15000	0,96245	0,00058
69,16000	0,96965	0,00081
69,17000	0,97620	0,00070
69,18000	0,98185	0,00058
69,19000	0,98724	0,00073
69,20000	0,99211	0,00058
69,21000	0,99539	0,00060
69,22000	0,99694	0,00064
69,23000	0,99651	0,00084
69,24000	0,99487	0,00063
69,25000	0,99142	0,00063
69,26000	0,98689	0,00077
69,27000	0,98146	0,00074
69,28000	0,97487	0,00064
69,29000	0,96767	0,00057
69,30000	0,95995	0,00074
69,31000	0,95275	0,00087
69,32000	0,94611	0,00069
69,33000	0,93771	0,00083
69,34000	0,92900	0,00066
69,35000	0,91900	0,00068
69,36000	0,91063	0,00051
69,37000	0,90373	0,00096
69,38000	0,89753	0,00066
69,39000	0,89421	0,00084
69,40000	0,89214	0,00072
69,41000	0,89390	0,00084
69,42000	0,89692	0,00064
69,43000	0,90429	0,00054
69,44000	0,91227	0,00049
69,45000	0,92089	0,00096
69,46000	0,93020	0,00056
69,47000	0,93908	0,00079
69,48000	0,94659	0,00063
69,49000	0,95258	0,00054
69,50000	0,95991	0,00079
69,51000	0,96637	0,00060
69,52000	0,97267	0,00092
69,53000	0,97857	0,00066
69,54000	0,98349	0,00079
69,55000	0,98888	0,00052
69,56000	0,99284	0,00065
69,57000	0,99517	0,00064
69,58000	0,99569	0,00046
69,59000	0,99491	0,00065
69,60000	0,99241	0,00067
69,61000	0,98840	0,00063
69,62000	0,98310	0,00070
69,63000	0,97719	0,00096
69,64000	0,97120	0,00073
69,65000	0,96512	0,00056
69,66000	0,95719	0,00058
69,67000	0,95068	0,00066
69,68000	0,94296	0,00051
69,69000	0,93322	0,00049
69,70000	0,92447	0,00070
69,71000	0,91606	0,00071
69,72000	0,90779	0,00078
69,73000	0,90292	0,00088
69,74000	0,89886	0,00065
69,75000	0,89757	0,00067
69,76000	0,89908	0,00051
69,77000	0,90330	0,00088
69,78000	0,90904	0,00074
69,79000	0,91611	0,00075
69,80000	0,92318	0,00077
69,81000	0,93301	0,00063
69,82000	0,94202	0,00083
69,83000	0,94857	0,00096
69,84000	0,95577	0,00075
69,85000	0,96167	0,00078
69,86000	0,96689	0,00067
69,87000	0,97301	0,00058
69,88000	0,97849	0,00074
69,89000	0,98353	0,00077
69,90000	0,98802	0,00052
69,91000	0,99228	0,00041
69,92000	0,99448	0,00073
69,93000	0,99513	0,00051
69,94000	0,99448	0,00067
69,95000	0,99168	0,00051
69,96000	0,98745	0,00051
69,97000	0,98284	0,00084
69,98000	0,97737	0,00063
69,99000	0,97073	0,00056
70,00000	0,96443	0,00049
70,01000	0,95784	0,00089
70,02000	0,95107	0,00078
70,03000	0,94452	0,00071
70,04000	0,93758	0,00067
70,05000	0,92934	0,00078
70,06000	0,92227	0,00064
70,07000	0,91641	0,00049
70,08000	0,91240	0,00064
70,09000	0,90973	0,00074
70,10000	0,90999	0,00082
70,11000	0,91098	0,00056
70,12000	0,91451	0,00064
70,13000	0,91921	0,00063
70,14000	0,92563	0,00063
70,15000	0,93314	0,00075
70,16000	0,94038	0,00069
70,17000	0,94650	0,00058
70,18000	0,95275	0,00067
70,19000	0,95823	0,00068
70,20000	0,96366	0,00069
70,21000	0,96956	0,00089
70,22000	0,97525	0,00084
70,23000	0,98107	0,00056
70,24000	0,98590	0,00086
70,25000	0,98931	0,00095
70,26000	0,99220	0,00075
70,27000	0,99431	0,00070
70,28000	0,99465	0,00060
70,29000	0,99224	0,00072
70,30000	0,98905	0,00057
70,31000	0,98439	0,00077
70,32000	0,97961	0,00069
70,33000	0,97418	0,00056
70,34000	0,96806	0,00043
70,35000	0,96142	0,00074
70,36000	0,95551	0,00064
70,37000	0,95008	0,00052
70,38000	0,94266	0,00069
70,39000	0,93783	0,00067
70,40000	0,93270	0,00033
70,41000	0,92809	0,00078
70,42000	0,92469	0,00077
70,43000	0,92180	0,00084
70,44000	0,92171	0,00091
70,45000	0,92171	0,00067
70,46000	0,92378	0,00082
70,47000	0,92602	0,00055
70,48000	0,92934	0,00056
70,49000	0,93395	0,00058
70,50000	0,93956	0,00047
70,51000	0,94447	0,00078
70,52000	0,95051	0,00048
70,53000	0,95473	0,00088
70,54000	0,96060	0,00063
70,55000	0,96607	0,00066
70,56000	0,97125	0,00081
70,57000	0,97663	0,00082
70,58000	0,98120	0,00067
70,59000	0,98504	0,00054
70,60000	0,98853	0,00080
70,61000	0,99168	0,00058
70,62000	0,99284	0,00070
70,63000	0,99224	0,00081
70,64000	0,99121	0,00060
70,65000	0,98806	0,00071
70,66000	0,98405	0,00074
70,67000	0,97922	0,00061
70,68000	0,97426	0,00077
70,69000	0,96784	0,00084
70,70000	0,96172	0,00067
70,71000	0,95633	0,00064
70,72000	0,95051	0,00048
70,73000	0,94456	0,00075
70,74000	0,93973	0,00044
70,75000	0,93482	0,00088
70,76000	0,93150	0,00063
70,77000	0,92917	0,00075
70,78000	0,92736	0,00068
70,79000	0,92641	0,00060
70,80000	0,92710	0,00075
70,81000	0,92839	0,00079
70,82000	0,93068	0,00087
70,83000	0,93434	0,00079
70,84000	0,93857	0,00074
70,85000	0,94262	0,00064
70,86000	0,94801	0,00084
70,87000	0,95344	0,00077
70,88000	0,95840	0,00092
70,89000	0,96379	0,00077
70,90000	0,96780	0,00066
70,91000	0,97271	0,00051
70,92000	0,97750	0,00067
70,93000	0,98202	0,00046
70,94000	0,98530	0,00051
70,95000	0,98931	0,00091
70,96000	0,99151	0,00066
70,97000	0,99129	0,00077
70,98000	0,99142	0,00068
70,99000	0,98901	0,00056
71,00000	0,98551	0,00073
71,01000	0,98176	0,00043
71,02000	0,97732	0,00075
71,03000	0,97181	0,00074
71,04000	0,96659	0,00056
71,05000	0,96129	0,00065
71,06000	0,95555	0,00051
71,07000	0,95090	0,00063
71,08000	0,94590	0,00078
71,09000	0,94072	0,00074
71,10000	0,93689	0,00038
71,11000	0,93318	0,00074
71,12000	0,93111	0,00065
71,13000	0,92874	0,00058
71,14000	0,92917	0,00058
71,15000	0,92882	0,00075
71,16000	0,93094	0,00086
71,17000	0,93404	0,00063
71,18000	0,93736	0,00075
71,19000	0,94090	0,00075
71,20000	0,94478	0,00079
71,21000	0,94866	0,00100
71,22000	0,95340	0,00064
71,23000	0,95801	0,00084
71,24000	0,96275	0,00077
71,25000	0,96758	0,00084
71,26000	0,97250	0,00075
71,27000	0,97771	0,00060
71,28000	0,98129	0,00063
71,29000	0,98513	0,00056
71,30000	0,98814	0,00063
71,31000	0,99026	0,00052
71,32000	0,99121	0,00054
71,33000	0,99030	0,00083
71,34000	0,98819	0,00050
71,35000	0,98474	0,00063
71,36000	0,98185	0,00043
71,37000	0,97732	0,00070
71,38000	0,97219	0,00083
71,39000	0,96715	0,00061
71,40000	0,96142	0,00074
71,41000	0,95693	0,00068
71,42000	0,95180	0,00052
71,43000	0,94676	0,00087
71,44000	0,94245	0,00074
71,45000	0,93840	0,00092
71,46000	0,93413	0,00078
71,47000	0,93120	0,00073
71,48000	0,92969	0,00079
71,49000	0,92956	0,00063
71,50000	0,93007	0,00077
71,51000	0,93236	0,00078
71,52000	0,93520	0,00075
71,53000	0,93952	0,00064
71,54000	0,94378	0,00060
71,55000	0,94728	0,00051
71,56000	0,95137	0,00082
71,57000	0,95616	0,00071
71,58000	0,96086	0,00067
71,59000	0,96469	0,00063
71,60000	0,96969	0,00084
71,61000	0,97370	0,00069
71,62000	0,97771	0,00066
71,63000	0,98133	0,00043
71,64000	0,98422	0,00065
71,65000	0,98720	0,00086
71,66000	0,98914	0,00064
71,67000	0,98866	0,00075
71,68000	0,98797	0,00068
71,69000	0,98595	0,00089
71,70000	0,98202	0,00060
71,71000	0,97844	0,00054
71,72000	0,97400	0,00075
71,73000	0,96982	0,00077
71,74000	0,96456	0,00047
71,75000	0,95935	0,00088
71,76000	0,95542	0,00079
71,77000	0,95163	0,00109
71,78000	0,94784	0,00057
71,79000	0,94460	0,00092
71,80000	0,94141	0,00087
71,81000	0,93887	0,00070
71,82000	0,93633	0,00081
71,83000	0,93482	0,00075
71,84000	0,93447	0,00086
71,85000	0,93628	0,00080
71,86000	0,93865	0,00075
71,87000	0,94068	0,00067
71,88000	0,94335	0,00050
71,89000	0,94672	0,00067
71,90000	0,94982	0,00077
71,91000	0,95387	0,00050
71,92000	0,95754	0,00056
71,93000	0,96189	0,00072
71,94000	0,96418	0,00069
71,95000	0,96956	0,00097
71,96000	0,97344	0,00067
71,97000	0,97719	0,00087
71,98000	0,98103	0,00054
71,99000	0,98379	0,00067
72,00000	0,98629	0,00070
72,01000	0,98758	0,00067
72,02000	0,98845	0,00082
72,03000	0,98698	0,00061
72,04000	0,98534	0,00086
72,05000	0,98232	0,00050
72,06000	0,97896	0,00078
72,07000	0,97556	0,00071
72,08000	0,97099	0,00069
72,09000	0,96655	0,00073
72,10000	0,96185	0,00078
72,11000	0,95823	0,00063
72,12000	0,95413	0,00054
72,13000	0,95025	0,00074
72,14000	0,94706	0,00073
72,15000	0,94383	0,00064
72,16000	0,94124	0,00079
72,17000	0,94034	0,00081
72,18000	0,93917	0,00051
72,19000	0,93887	0,00058
72,20000	0,93965	0,00054
72,21000	0,94120	0,00066
72,22000	0,94288	0,00096
72,23000	0,94516	0,00096
72,24000	0,94736	0,00058
72,25000	0,95090	0,00063
72,26000	0,95357	0,00105
72,27000	0,95680	0,00061
72,28000	0,95948	0,00081
72,29000	0,96396	0,00062
72,30000	0,96771	0,00063
72,31000	0,97112	0,00057
72,32000	0,97444	0,00058
72,33000	0,97840	0,00064
72,34000	0,98103	0,00066
72,35000	0,98357	0,00058
72,36000	0,98500	0,00078
72,37000	0,98569	0,00075
72,38000	0,98513	0,00063
72,39000	0,98362	0,00072
72,40000	0,98103	0,00060
72,41000	0,97767	0,00070
72,42000	0,97439	0,00063
72,43000	0,97077	0,00044
72,44000	0,96676	0,00069
72,45000	0,96331	0,00088
72,46000	0,95930	0,00090
72,47000	0,95603	0,00077
72,48000	0,95232	0,00044
72,49000	0,94922	0,00080
72,50000	0,94663	0,00065
72,51000	0,94396	0,00072
72,52000	0,94262	0,00075
72,53000	0,94146	0,00089
72,54000	0,94128	0,00067
72,55000	0,94210	0,00084
72,56000	0,94279	0,00086
72,56999	0,94400	0,00068
72,57899	0,94620	0,00067
72,58799	0,94792	0,00078
72,59699	0,95021	0,00049
72,60599	0,95266	0,00065
72,61499	0,95443	0,00081
72,62399	0,95715	0,00057
72,63299	0,96047	0,00086
72,64199	0,96331	0,00079
72,65099	0,96633	0,00079
72,65999	0,96909	0,00077
72,66899	0,97232	0,00067
72,67799	0,97538	0,00069
72,68699	0,97844	0,00046
72,69599	0,98138	0,00070
72,70499	0,98250	0,00080
72,71399	0,98409	0,00087
72,72299	0,98401	0,00064
72,73199	0,98276	0,00072
72,74099	0,98172	0,00060
72,74999	0,97995	0,00092
72,75899	0,97767	0,00084
72,76799	0,97534	0,00058
72,77699	0,97185	0,00069
72,78599	0,96922	0,00057
72,79499	0,96534	0,00077
72,80399	0,96262	0,00090
72,81299	0,95892	0,00075
72,82199	0,95646	0,00088
72,83099	0,95400	0,00060
72,83999	0,95085	0,00077
72,84899	0,94891	0,00078
72,85799	0,94736	0,00064
72,86699	0,94598	0,00075
72,87599	0,94447	0,00062
72,88499	0,94365	0,00066
72,89399	0,94365	0,00066
72,90299	0,94357	0,00056
72,91199	0,94396	0,00066
72,92099	0,94568	0,00054
72,92999	0,94654	0,00060
72,93899	0,94822	0,00075
72,94799	0,94909	0,00088
72,95699	0,95185	0,00086
72,96599	0,95396	0,00095
72,97499	0,95654	0,00048
72,98399	0,95922	0,00080
72,99299	0,96120	0,00081
73,00199	0,96469	0,00049
73,01099	0,96668	0,00079
73,01999	0,96961	0,00087
73,02899	0,97146	0,00086
73,03799	0,97478	0,00074
73,04699	0,97711	0,00069
73,05599	0,98000	0,00066
73,06499	0,98103	0,00077
73,07399	0,98202	0,00066
73,08299	0,98155	0,00048
73,09199	0,98090	0,00075
73,10099	0,98017	0,00060
73,10999	0,97840	0,00033
73,11899	0,97551	0,00067
73,12799	0,97336	0,00093
73,13699	0,97021	0,00051
73,14599	0,96793	0,00038
73,15499	0,96534	0,00072
73,16399	0,96336	0,00069
73,17299	0,95922	0,00089
73,18199	0,95702	0,00066
73,19099	0,95504	0,00084
73,19999	0,95254	0,00064
73,20899	0,94935	0,00099
73,21799	0,94857	0,00064
73,22699	0,94684	0,00051
73,23599	0,94465	0,00060
73,24499	0,94478	0,00088
73,25399	0,94460	0,00074
73,26299	0,94421	0,00074
73,27199	0,94503	0,00096
73,28099	0,94534	0,00067
73,28999	0,94615	0,00074
73,29899	0,94715	0,00058
73,30799	0,94904	0,00094
73,31699	0,95034	0,00075
73,32599	0,95206	0,00088
73,33499	0,95456	0,00063
73,34399	0,95616	0,00077
73,35299	0,95874	0,00086
73,36199	0,96094	0,00075
73,37099	0,96323	0,00058
73,37999	0,96551	0,00086
73,38899	0,96801	0,00039
73,39799	0,97099	0,00058
73,40699	0,97370	0,00069
73,41599	0,97603	0,00082
73,42499	0,97814	0,00054
73,43399	0,97939	0,00075
73,44299	0,97991	0,00070
73,45199	0,98051	0,00064
73,46099	0,97961	0,00079
73,46999	0,97758	0,00072
73,47899	0,97638	0,00078
73,48799	0,97426	0,00077
73,49699	0,97116	0,00056
73,50599	0,96870	0,00070
73,51499	0,96668	0,00051
73,52399	0,96361	0,00072
73,53299	0,96185	0,00074
73,54199	0,95965	0,00062
73,55099	0,95702	0,00066
73,55999	0,95551	0,00070
73,56899	0,95327	0,00077
73,57799	0,95094	0,00080
73,58699	0,94960	0,00063
73,59599	0,94818	0,00061
73,60499	0,94788	0,00056
73,61399	0,94689	0,00058
73,62299	0,94654	0,00060
73,63199	0,94620	0,00062
73,64099	0,94659	0,00068
73,64999	0,94723	0,00060
73,65899	0,94779	0,00069
73,66799	0,94900	0,00064
73,67699	0,95055	0,00060
73,68599	0,95150	0,00096
73,69499	0,95361	0,00082
73,70399	0,95521	0,00074
73,71299	0,95693	0,00068
73,72199	0,95900	0,00069
73,73099	0,96103	0,00066
73,73999	0,96288	0,00088
73,74899	0,96525	0,00065
73,75799	0,96771	0,00074
73,76699	0,97056	0,00051
73,77599	0,97306	0,00068
73,78499	0,97491	0,00061
73,79399	0,97715	0,00079
73,80299	0,97849	0,00078
73,81199	0,97909	0,00096
73,82099	0,97957	0,00057
73,82999	0,97862	0,00067
73,83899	0,97728	0,00090
73,84799	0,97525	0,00079
73,85699	0,97370	0,00096
73,86599	0,97172	0,00067
73,87499	0,96926	0,00092
73,88399	0,96719	0,00084
73,89299	0,96469	0,00056
73,90199	0,96202	0,00075
73,91099	0,95969	0,00078
73,91999	0,95754	0,00041
73,92899	0,95529	0,00086
73,93799	0,95310	0,00062
73,94699	0,95245	0,00079
73,95599	0,95068	0,00077
73,96499	0,94935	0,00092
73,97399	0,94848	0,00063
73,98299	0,94814	0,00064
73,99199	0,94779	0,00064
74,00099	0,94822	0,00058
74,00999	0,94887	0,00070
74,01899	0,94840	0,00077
74,02799	0,94874	0,00068
74,03699	0,95029	0,00058
74,04599	0,95116	0,00075
74,05499	0,95284	0,00063
74,06399	0,95456	0,00069
74,07299	0,95598	0,00075
74,08199	0,95771	0,00088
74,09099	0,95948	0,00072
74,09999	0,96150	0,00064
74,10899	0,96275	0,00060
74,11799	0,96525	0,00080
74,12699	0,96741	0,00067
74,13599	0,96943	0,00083
74,14499	0,97245	0,00083
74,15399	0,97469	0,00054
74,16299	0,97581	0,00064
74,17199	0,97728	0,00066
74,18099	0,97732	0,00070
74,18999	0,97676	0,00078
74,19899	0,97547	0,00068
74,20799	0,97469	0,00071
74,21699	0,97280	0,00079
74,22599	0,97099	0,00058
74,23499	0,96900	0,00078
74,24399	0,96737	0,00081
74,25299	0,96478	0,00098
74,26199	0,96249	0,00063
74,27099	0,96064	0,00075
74,27999	0,95904	0,00088
74,28899	0,95706	0,00062
74,29799	0,95547	0,00064
74,30699	0,95387	0,00050
74,31599	0,95310	0,00078
74,32499	0,95150	0,00063
74,33399	0,95081	0,00043
74,34299	0,95042	0,00069
74,35199	0,94926	0,00071
74,36099	0,94904	0,00067
74,36999	0,94822	0,00064
74,37899	0,95021	0,00078
74,38799	0,95090	0,00078
74,39699	0,95215	0,00074
74,40599	0,95266	0,00070
74,41499	0,95374	0,00058
74,42399	0,95413	0,00054
74,43299	0,95629	0,00057
74,44199	0,95754	0,00083
74,45099	0,95879	0,00078
74,45999	0,96055	0,00087
74,46899	0,96241	0,00070
74,47799	0,96469	0,00049
74,48699	0,96680	0,00057
74,49599	0,96862	0,00055
74,50499	0,97181	0,00063
74,51399	0,97392	0,00056
74,52299	0,97504	0,00063
74,53199	0,97586	0,00066
74,54099	0,97676	0,00099
74,54999	0,97581	0,00064
74,55899	0,97500	0,00054
74,56799	0,97405	0,00072
74,57699	0,97275	0,00088
74,58599	0,97073	0,00068
74,59499	0,96939	0,00079
74,60399	0,96741	0,00062
74,61299	0,96495	0,00064
74,62199	0,96301	0,00080
74,63099	0,96129	0,00065
74,63999	0,95917	0,00071
74,64899	0,95810	0,00084
74,65799	0,95667	0,00068
74,66699	0,95504	0,00064
74,67599	0,95413	0,00060
74,68499	0,95305	0,00068
74,69399	0,95223	0,00091
74,70299	0,95137	0,00073
74,71199	0,95133	0,00083
74,72099	0,95124	0,00088
74,72999	0,95111	0,00069
74,73899	0,95254	0,00069
74,74799	0,95254	0,00075
74,75699	0,95288	0,00075
74,76599	0,95409	0,00063
74,77499	0,95456	0,00057
74,78399	0,95603	0,00081
74,79299	0,95719	0,00064
74,80199	0,95836	0,00097
74,81099	0,95965	0,00062
74,81999	0,96133	0,00060
74,82899	0,96219	0,00090
74,83799	0,96383	0,00063
74,84699	0,96758	0,00064
74,85599	0,96943	0,00078
74,86499	0,97090	0,00074
74,87399	0,97379	0,00073
74,88299	0,97534	0,00075
74,89199	0,97560	0,00065
74,90099	0,97612	0,00063
74,90999	0,97530	0,00058
74,91899	0,97439	0,00079
74,92799	0,97357	0,00079
74,93699	0,97168	0,00054
74,94599	0,96948	0,00078
74,95499	0,96784	0,00070
74,96399	0,96633	0,00058
74,97299	0,96452	0,00079
74,98199	0,96301	0,00075
74,99099	0,96137	0,00073
74,99999	0,95999	0,00087
75,00899	0,95874	0,00054
75,01799	0,95745	0,00054
75,02699	0,95577	0,00075
75,03599	0,95508	0,00061
75,04499	0,95443	0,00046
75,05399	0,95383	0,00064
75,06299	0,95366	0,00083
75,07199	0,95391	0,00063
75,08099	0,95361	0,00067
75,08999	0,95404	0,00075
75,09899	0,95435	0,00049
75,10799	0,95491	0,00052
75,11699	0,95504	0,00051
75,12599	0,95611	0,00070
75,13499	0,95680	0,00082
75,14399	0,95762	0,00064
75,15299	0,95926	0,00074
75,16199	0,95978	0,00084
75,17099	0,96129	0,00052
75,17999	0,96340	0,00074
75,18899	0,96439	0,00070
75,19799	0,96629	0,00077
75,20699	0,96918	0,00074
75,21599	0,97090	0,00074
75,22499	0,97250	0,00084
75,23399	0,97422	0,00097
75,24299	0,97543	0,00074
75,25199	0,97513	0,00066
75,26099	0,97474	0,00058
75,26999	0,97474	0,00065
75,27899	0,97409	0,00064
75,28799	0,97224	0,00066
75,29699	0,97086	0,00040
75,30599	0,96905	0,00080
75,31499	0,96728	0,00074
75,32399	0,96603	0,00073
75,33299	0,96396	0,00087
75,34199	0,96275	0,00077
75,35099	0,96189	0,00054
75,35999	0,95991	0,00074
75,36899	0,95922	0,00080
75,37799	0,95814	0,00079
75,38699	0,95762	0,00064
75,39599	0,95698	0,00058
75,40499	0,95689	0,00066
75,41399	0,95680	0,00067
75,42299	0,95693	0,00078
75,43199	0,95629	0,00079
75,44099	0,95603	0,00066
75,44999	0,95715	0,00057
75,45899	0,95736	0,00056
75,46799	0,95723	0,00079
75,47699	0,95823	0,00078
75,48599	0,95840	0,00083
75,49499	0,95879	0,00082
75,50399	0,95943	0,00051
75,51299	0,96060	0,00069
75,52199	0,96167	0,00063
75,53099	0,96280	0,00069
75,53999	0,96469	0,00087
75,54899	0,96663	0,00057
75,55799	0,96818	0,00052
75,56699	0,97168	0,00071
75,57599	0,97267	0,00079
75,58499	0,97392	0,00078
75,59399	0,97513	0,00066
75,60299	0,97525	0,00063
75,61199	0,97534	0,00058
75,62099	0,97482	0,00054
75,62999	0,97344	0,00067
75,63899	0,97155	0,00077
75,64799	0,97030	0,00063
75,65699	0,97004	0,00083
75,66599	0,96874	0,00063
75,67499	0,96775	0,00062
75,68399	0,96637	0,00094
75,69299	0,96508	0,00069
75,70199	0,96426	0,00049
75,71099	0,96314	0,00083
75,71999	0,96189	0,00077
75,72899	0,96137	0,00078
75,73799	0,96107	0,00064
75,74699	0,96012	0,00092
75,75599	0,95956	0,00070
75,76499	0,95913	0,00055
75,77399	0,95870	0,00075
75,78299	0,95870	0,00075
75,79199	0,95896	0,00070
75,80099	0,95956	0,00075
75,80999	0,95896	0,00058
75,81899	0,95917	0,00066
75,82799	0,95986	0,00051
75,83699	0,95991	0,00050
75,84599	0,96098	0,00068
75,85499	0,96077	0,00050
75,86399	0,96129	0,00065
75,87299	0,96176	0,00054
75,88199	0,96297	0,00063
75,89099	0,96413	0,00058
75,89999	0,96616	0,00092
75,90899	0,96844	0,00070
75,91799	0,97017	0,00064
75,92699	0,97202	0,00078
75,93599	0,97482	0,00060
75,94499	0,97573	0,00079
75,95399	0,97616	0,00084
75,96299	0,97603	0,00082
75,97199	0,97547	0,00068
75,98099	0,97465	0,00062
75,98999	0,97439	0,00079
75,99899	0,97323	0,00079
76,00799	0,97181	0,00050
76,01699	0,97094	0,00084
76,02599	0,96991	0,00070
76,03499	0,96866	0,00066
76,04399	0,96814	0,00096
76,05299	0,96719	0,00084
76,06199	0,96629	0,00090
76,07099	0,96603	0,00091
76,07999	0,96504	0,00069
76,08899	0,96387	0,00075
76,09799	0,96383	0,00063
76,10699	0,96258	0,00087
76,11599	0,96202	0,00075
76,12499	0,96211	0,00087
76,13399	0,96124	0,00049
76,14299	0,96081	0,00056
76,15199	0,96120	0,00081
76,16099	0,96090	0,00077
76,16999	0,96038	0,00063
76,17899	0,96055	0,00063
76,18799	0,96137	0,00067
76,19699	0,96133	0,00060
76,20599	0,96172	0,00062
76,21499	0,96254	0,00068
76,22399	0,96262	0,00060
76,23299	0,96405	0,00079
76,24199	0,96555	0,00056
76,25099	0,96724	0,00060
76,25999	0,96905	0,00070
76,26899	0,97129	0,00070
76,27799	0,97319	0,00055
76,28699	0,97500	0,00060
76,29599	0,97625	0,00069
76,30499	0,97676	0,00087
76,31399	0,97750	0,00055
76,32299	0,97702	0,00069
76,33199	0,97655	0,00077
76,34099	0,97538	0,00051
76,34999	0,97495	0,00051
76,35899	0,97418	0,00068
76,36799	0,97344	0,00067
76,37699	0,97262	0,00083
76,38599	0,97172	0,00073
76,39499	0,97051	0,00072
76,40399	0,96965	0,00072
76,41299	0,96900	0,00074
76,42199	0,96797	0,00051
76,43099	0,96702	0,00063
76,43999	0,96650	0,00090
76,44899	0,96603	0,00091
76,45799	0,96530	0,00078
76,46699	0,96495	0,00088
76,47599	0,96439	0,00070
76,48499	0,96396	0,00067
76,49399	0,96361	0,00077
76,50299	0,96340	0,00083
76,51199	0,96301	0,00070
76,52099	0,96331	0,00069
76,52999	0,96301	0,00058
76,53899	0,96245	0,00069
76,54799	0,96245	0,00051
76,55699	0,96327	0,00070
76,56599	0,96379	0,00086
76,57499	0,96387	0,00058
76,58399	0,96456	0,00055
76,59299	0,96534	0,00086
76,60199	0,96650	0,00071
76,61099	0,96844	0,00064
76,61999	0,97043	0,00058
76,62899	0,97241	0,00081
76,63799	0,97461	0,00068
76,64699	0,97659	0,00069
76,65599	0,97745	0,00064
76,66499	0,97767	0,00065
76,67399	0,97784	0,00069
76,68299	0,97767	0,00093
76,69199	0,97663	0,00077
76,70099	0,97547	0,00063
76,70999	0,97452	0,00075
76,71899	0,97383	0,00071
76,72799	0,97275	0,00084
76,73699	0,97142	0,00088
76,74599	0,97047	0,00049
76,75499	0,97017	0,00070
76,76399	0,96896	0,00060
76,77299	0,96874	0,00092
76,78199	0,96814	0,00056
76,79099	0,96745	0,00068
76,79999	0,96676	0,00058
76,80899	0,96672	0,00058
76,81799	0,96612	0,00101
76,82699	0,96495	0,00079
76,83599	0,96521	0,00066
76,84499	0,96482	0,00078
76,85399	0,96469	0,00056
76,86299	0,96448	0,00060
76,87199	0,96418	0,00064
76,88099	0,96418	0,00079
76,88999	0,96353	0,00065
76,89899	0,96396	0,00048
76,90799	0,96396	0,00082
76,91699	0,96409	0,00051
76,92599	0,96392	0,00060
76,93499	0,96409	0,00069
76,94399	0,96435	0,00054
76,95299	0,96555	0,00087
76,96199	0,96672	0,00084
76,97099	0,96818	0,00058
76,97999	0,96995	0,00081
76,98899	0,97168	0,00060
76,99799	0,97379	0,00078
77,00699	0,97504	0,00083
77,01599	0,97543	0,00069
77,02499	0,97650	0,00083
77,03399	0,97599	0,00060
77,04299	0,97556	0,00060
77,05199	0,97478	0,00063
77,06099	0,97456	0,00057
77,06999	0,97340	0,00066
77,07899	0,97301	0,00070
77,08799	0,97237	0,00064
77,09699	0,97120	0,00073
77,10599	0,97060	0,00061
77,11499	0,96965	0,00077
77,12399	0,96896	0,00066
77,13299	0,96836	0,00057
77,14199	0,96806	0,00064
77,15099	0,96801	0,00061
77,15999	0,96706	0,00060
77,16899	0,96685	0,00063
77,17799	0,96637	0,00081
77,18699	0,96560	0,00075
77,19599	0,96517	0,00082
77,20499	0,96452	0,00033
77,21399	0,96413	0,00064
77,22299	0,96392	0,00077
77,23199	0,96366	0,00088
77,24099	0,96271	0,00063
77,24999	0,96301	0,00065
77,25899	0,96262	0,00086
77,26799	0,96206	0,00077
77,27699	0,96180	0,00058
77,28599	0,96228	0,00092
77,29499	0,96249	0,00063
77,30399	0,96284	0,00082
77,31299	0,96405	0,00069
77,32199	0,96525	0,00058
77,33099	0,96573	0,00092
77,33999	0,96840	0,00064
77,34899	0,97012	0,00079
77,35799	0,97163	0,00093
77,36699	0,97396	0,00066
77,37599	0,97474	0,00044
77,38499	0,97478	0,00031
77,39399	0,97517	0,00078
77,40299	0,97448	0,00043
77,41199	0,97392	0,00056
77,42099	0,97353	0,00063
77,42999	0,97258	0,00082
77,43899	0,97120	0,00078
77,44799	0,97073	0,00074
77,45699	0,97021	0,00084
77,46599	0,96879	0,00077
77,47499	0,96857	0,00063
77,48399	0,96775	0,00055
77,49299	0,96702	0,00068
77,50199	0,96637	0,00072
77,51099	0,96573	0,00056
77,51999	0,96512	0,00063
77,52899	0,96461	0,00075
77,53799	0,96374	0,00075
77,54699	0,96305	0,00077
77,55599	0,96280	0,00104
77,56499	0,96245	0,00075
77,57399	0,96129	0,00070
77,58299	0,96159	0,00058
77,59199	0,96116	0,00075
77,60099	0,96055	0,00068
77,60999	0,96038	0,00056
77,61899	0,96012	0,00083
77,62799	0,95965	0,00078
77,63699	0,95956	0,00065
77,64599	0,95978	0,00075
77,65499	0,95952	0,00074
77,66399	0,95961	0,00077
77,67299	0,96094	0,00044
77,68199	0,96167	0,00063
77,69099	0,96426	0,00063
77,69999	0,96637	0,00054
77,70899	0,96806	0,00088
77,71799	0,97004	0,00074
77,72699	0,97116	0,00049
77,73599	0,97198	0,00063
77,74499	0,97241	0,00081
77,75399	0,97155	0,00054
77,76299	0,97116	0,00074
77,77199	0,97077	0,00058
77,78099	0,97025	0,00088
77,78999	0,96900	0,00078
77,79899	0,96836	0,00069
77,80799	0,96749	0,00088
77,81699	0,96646	0,00058
77,82599	0,96547	0,00069
77,83499	0,96448	0,00072
77,84399	0,96418	0,00051
77,85299	0,96353	0,00075
77,86199	0,96327	0,00064
77,87099	0,96254	0,00078
77,87999	0,96172	0,00055
77,88899	0,96142	0,00096
77,89799	0,96073	0,00043
77,90699	0,96060	0,00069
77,91599	0,95986	0,00069
77,92499	0,95982	0,00070
77,93399	0,95913	0,00067
77,94299	0,95805	0,00051
77,95199	0,95840	0,00074
77,96099	0,95784	0,00070
77,96999	0,95758	0,00072
77,97899	0,95702	0,00046
77,98799	0,95667	0,00049
77,99699	0,95650	0,00087
78,00599	0,95663	0,00065
78,01499	0,95633	0,00064
78,02399	0,95685	0,00084
78,03299	0,95693	0,00063
78,04199	0,95840	0,00083
78,05099	0,95965	0,00067
78,05999	0,96133	0,00071
78,06899	0,96310	0,00055
78,07799	0,96456	0,00047
78,08699	0,96612	0,00075
78,09599	0,96659	0,00087
78,10499	0,96758	0,00070
78,11399	0,96702	0,00063
78,12299	0,96702	0,00063
78,13199	0,96659	0,00099
78,14099	0,96564	0,00066
78,14999	0,96456	0,00061
78,15899	0,96383	0,00063
78,16799	0,96267	0,00070
78,17699	0,96236	0,00084
78,18599	0,96155	0,00058
78,19499	0,96030	0,00075
78,20399	0,95935	0,00064
78,21299	0,95913	0,00073
78,22199	0,95926	0,00063
78,23099	0,95831	0,00071
78,23999	0,95706	0,00055
78,24899	0,95723	0,00064
78,25799	0,95667	0,00083
78,26699	0,95659	0,00071
78,27599	0,95672	0,00046
78,28499	0,95585	0,00046
78,29399	0,95508	0,00055
78,30299	0,95517	0,00077
78,31199	0,95413	0,00060
78,32099	0,95396	0,00055
78,32999	0,95310	0,00078
78,33899	0,95301	0,00063
78,34799	0,95249	0,00067
78,35699	0,95167	0,00084
78,36599	0,95129	0,00079
78,37499	0,95090	0,00083
78,38399	0,95068	0,00072
78,39299	0,95107	0,00068
78,40199	0,95090	0,00056
78,41099	0,95236	0,00074
78,41999	0,95314	0,00066
78,42899	0,95448	0,00040
78,43799	0,95624	0,00063
78,44699	0,95866	0,00078
78,45599	0,95969	0,00063
78,46499	0,96077	0,00074
78,47399	0,96193	0,00069
78,48299	0,96232	0,00057
78,49199	0,96215	0,00084
78,50099	0,96176	0,00081
78,50999	0,96116	0,00069
78,51899	0,96017	0,00066
78,52799	0,95956	0,00058
78,53699	0,95883	0,00063
78,54599	0,95797	0,00083
78,55499	0,95775	0,00060
78,56399	0,95676	0,00064
78,57299	0,95560	0,00079
78,58199	0,95469	0,00043
78,59099	0,95448	0,00062
78,59999	0,95348	0,00074
78,60899	0,95228	0,00081
78,61799	0,95197	0,00084
78,62699	0,95163	0,00077
78,63599	0,95060	0,00058
78,64499	0,95042	0,00063
78,65399	0,94973	0,00080
78,66299	0,94969	0,00066
78,67199	0,94883	0,00066
78,68099	0,94835	0,00093
78,68999	0,94749	0,00044
78,69899	0,94715	0,00065
78,70799	0,94637	0,00081
78,71699	0,94603	0,00064
78,72599	0,94585	0,00067
78,73499	0,94534	0,00067
78,74399	0,94534	0,00082
78,75299	0,94490	0,00080
78,76199	0,94529	0,00068
78,77099	0,94564	0,00051
78,77999	0,94615	0,00096
78,78899	0,94689	0,00064
78,79799	0,94827	0,00072
78,80699	0,94999	0,00066
78,81599	0,95185	0,00066
78,82499	0,95400	0,00090
78,83399	0,95508	0,00067
78,84299	0,95672	0,00086
78,85199	0,95736	0,00074
78,86099	0,95736	0,00074
78,86999	0,95693	0,00063
78,87899	0,95629	0,00057
78,88799	0,95568	0,00073
78,89699	0,95473	0,00063
78,90599	0,95417	0,00051
78,91499	0,95314	0,00054
78,92399	0,95215	0,00063
78,93299	0,95107	0,00063
78,94199	0,95012	0,00077
78,95099	0,94930	0,00082
78,95999	0,94805	0,00068
78,96899	0,94728	0,00075
78,97799	0,94680	0,00069
78,98699	0,94654	0,00066
78,99599	0,94585	0,00073
79,00499	0,94508	0,00088
79,01399	0,94370	0,00044
79,02299	0,94374	0,00063
79,03199	0,94361	0,00048
79,04099	0,94284	0,00075
79,04999	0,94227	0,00068
79,05899	0,94227	0,00083
79,06799	0,94219	0,00084
79,07699	0,94124	0,00051
79,08599	0,94167	0,00064
79,09499	0,94120	0,00086
79,10399	0,94068	0,00078
79,11299	0,94038	0,00069
79,12199	0,94025	0,00058
79,13099	0,93999	0,00058
79,13999	0,94008	0,00063
79,14899	0,94003	0,00075
79,15799	0,93999	0,00058
79,16699	0,94090	0,00092
79,17599	0,94180	0,00063
79,18499	0,94275	0,00067
79,19399	0,94499	0,00095
79,20299	0,94663	0,00075
79,21199	0,94831	0,00087
79,22099	0,95034	0,00058
79,22999	0,95159	0,00088
79,23899	0,95219	0,00087
79,24799	0,95219	0,00074
79,25699	0,95107	0,00083
79,26599	0,95094	0,00075
79,27499	0,94926	0,00081
79,28399	0,94818	0,00072
79,29299	0,94775	0,00070
79,30199	0,94624	0,00081
79,31099	0,94572	0,00078
79,31999	0,94547	0,00087
79,32899	0,94391	0,00069
79,33799	0,94322	0,00046
79,34699	0,94296	0,00069
79,35599	0,94197	0,00065
79,36499	0,94090	0,00064
79,37399	0,94046	0,00079
79,38299	0,93990	0,00074
79,39199	0,93908	0,00069
79,40099	0,93896	0,00067
79,40999	0,93908	0,00069
79,41899	0,93779	0,00069
79,42799	0,93732	0,00079
79,43699	0,93684	0,00041
79,44599	0,93637	0,00078
79,45499	0,93589	0,00077
79,46399	0,93589	0,00071
79,47299	0,93508	0,00058
79,48199	0,93443	0,00096
79,49099	0,93430	0,00072
79,49999	0,93378	0,00082
79,50899	0,93387	0,00074
79,51799	0,93417	0,00071
79,52699	0,93391	0,00084
79,53599	0,93439	0,00077
79,54499	0,93572	0,00075
79,55399	0,93667	0,00068
79,56299	0,93848	0,00071
79,57199	0,94012	0,00063
79,58099	0,94258	0,00043
79,58999	0,94439	0,00084
79,59899	0,94628	0,00093
79,60799	0,94741	0,00086
79,61699	0,94779	0,00058
79,62599	0,94741	0,00054
79,63499	0,94732	0,00061
79,64399	0,94676	0,00074
79,65299	0,94534	0,00078
79,66199	0,94443	0,00103
79,67099	0,94271	0,00074
79,67999	0,94167	0,00058
79,68899	0,94059	0,00058
79,69799	0,93965	0,00072
79,70699	0,93870	0,00061
79,71599	0,93697	0,00082
79,72499	0,93710	0,00056
79,73399	0,93585	0,00067
79,74299	0,93400	0,00069
79,75199	0,93383	0,00049
79,76099	0,93253	0,00068
79,76999	0,93163	0,00084
79,77899	0,93107	0,00074
79,78799	0,92977	0,00068
79,79699	0,92938	0,00080
79,80599	0,92900	0,00077
79,81499	0,92887	0,00074
79,82399	0,92801	0,00069
79,83299	0,92762	0,00056
79,84199	0,92805	0,00063
79,85099	0,92701	0,00069
79,85999	0,92736	0,00049
79,86899	0,92719	0,00074
79,87799	0,92779	0,00074
79,88699	0,92865	0,00068
79,89599	0,92826	0,00086
79,90499	0,92813	0,00060
79,91399	0,93025	0,00075
79,92299	0,92973	0,00069
79,93199	0,93145	0,00079
79,94099	0,93301	0,00063
79,94999	0,93559	0,00084
79,95899	0,93865	0,00084
79,96799	0,94081	0,00079
79,97699	0,94288	0,00068
79,98599	0,94361	0,00048
79,99499	0,94305	0,00051
80,00399	0,94314	0,00049
80,01299	0,94206	0,00060
80,02199	0,94029	0,00056
80,03099	0,93990	0,00069
80,03999	0,93788	0,00084
80,04899	0,93628	0,00070
80,05799	0,93581	0,00092
80,06699	0,93439	0,00067
80,07599	0,93331	0,00060
80,08499	0,93193	0,00049
80,09399	0,93081	0,00078
80,10299	0,92930	0,00081
80,11199	0,92887	0,00050
80,12099	0,92792	0,00075
80,12999	0,92749	0,00077
80,13899	0,92676	0,00083
80,14799	0,92671	0,00081
80,15699	0,92594	0,00058
80,16599	0,92460	0,00078
80,17499	0,92520	0,00068
80,18399	0,92473	0,00084
80,19299	0,92525	0,00063
80,20199	0,92494	0,00104
80,21099	0,92516	0,00067
80,21999	0,92477	0,00068
80,22899	0,92486	0,00058
80,23799	0,92546	0,00056
80,24699	0,92525	0,00063
80,25599	0,92473	0,00058
80,26499	0,92520	0,00049
80,27399	0,92576	0,00061
80,28299	0,92676	0,00063
80,29199	0,92818	0,00075
80,30099	0,92982	0,00087
80,30999	0,93219	0,00069
80,31899	0,93495	0,00087
80,32799	0,93801	0,00070
80,33699	0,93874	0,00058
80,34599	0,94090	0,00064
80,35499	0,94227	0,00068
80,36399	0,94223	0,00066
80,37299	0,94202	0,00078
80,38199	0,94098	0,00074
80,39099	0,93939	0,00058
80,39999	0,93689	0,00072
80,40899	0,93628	0,00058
80,41799	0,93469	0,00068
80,42699	0,93275	0,00072
80,43599	0,93214	0,00057
80,44499	0,93141	0,00084
80,45399	0,92973	0,00084
80,46299	0,92908	0,00074
80,47199	0,92792	0,00064
80,48099	0,92628	0,00063
80,48999	0,92512	0,00054
80,49899	0,92357	0,00051
80,50799	0,92288	0,00063
80,51699	0,92244	0,00083
80,52599	0,92089	0,00074
80,53499	0,92068	0,00072
80,54399	0,92175	0,00099
80,55299	0,92076	0,00075
80,56199	0,92081	0,00086
80,57099	0,92206	0,00055
80,57999	0,92210	0,00081
80,58899	0,92227	0,00079
80,59799	0,92262	0,00063
80,60699	0,92266	0,00074
80,61599	0,92279	0,00064
80,62499	0,92361	0,00051
80,63399	0,92443	0,00104
80,64299	0,92438	0,00069
80,65199	0,92581	0,00058
80,66099	0,92736	0,00049
80,66999	0,92964	0,00051
80,67899	0,93206	0,00067
80,68799	0,93542	0,00058
80,69699	0,93861	0,00086
80,70599	0,94133	0,00079
80,71499	0,94417	0,00074
80,72399	0,94439	0,00084
80,73299	0,94426	0,00075
80,74199	0,94439	0,00057
80,75099	0,94288	0,00056
80,75999	0,94029	0,00063
80,76899	0,93917	0,00088
80,77799	0,93887	0,00052
80,78699	0,93753	0,00056
80,79599	0,93387	0,00057
80,80499	0,93214	0,00074
80,81399	0,93137	0,00079
80,82299	0,92951	0,00078
80,83199	0,92766	0,00070
80,84099	0,92529	0,00051
80,84999	0,92438	0,00063
80,85899	0,92193	0,00092
80,86799	0,92089	0,00049
80,87699	0,92037	0,00054
80,88599	0,91934	0,00058
80,89499	0,91831	0,00056
80,90399	0,91839	0,00075
80,91299	0,91796	0,00051
80,92199	0,91925	0,00064
80,93099	0,91891	0,00084
80,93999	0,91878	0,00066
80,94899	0,91938	0,00063
80,95799	0,92003	0,00068
80,96699	0,91977	0,00051
80,97599	0,92055	0,00058
80,98499	0,92206	0,00067
80,99399	0,92499	0,00046
81,00299	0,92594	0,00058
81,01199	0,92818	0,00080
81,02099	0,92973	0,00079
81,02999	0,93296	0,00063
81,03899	0,93568	0,00070
81,04799	0,93930	0,00067
81,05699	0,94159	0,00078
81,06599	0,94534	0,00087
81,07499	0,94723	0,00066
81,08399	0,94909	0,00069
81,09299	0,95047	0,00063
81,10199	0,95068	0,00066
81,11099	0,94943	0,00069
81,11999	0,94801	0,00075
81,12899	0,94680	0,00069
81,13799	0,94473	0,00072
81,14699	0,94279	0,00077
81,15599	0,94115	0,00063
81,16499	0,93844	0,00067
81,17399	0,93577	0,00063
81,18299	0,93326	0,00078
81,19199	0,93107	0,00063
81,20099	0,92762	0,00096
81,20999	0,92576	0,00077
81,21899	0,92482	0,00086
81,22799	0,92163	0,00084
81,23699	0,91990	0,00044
81,24599	0,91943	0,00063
81,25499	0,91792	0,00072
81,26399	0,91731	0,00075
81,27299	0,91843	0,00096
81,28199	0,91912	0,00082
81,29099	0,91986	0,00063
81,29999	0,92025	0,00069
81,30899	0,92150	0,00075
81,31799	0,92283	0,00050
81,32699	0,92378	0,00078
81,33599	0,92563	0,00063
81,34499	0,92732	0,00080
81,35399	0,92921	0,00067
81,36299	0,93051	0,00070
81,37199	0,93232	0,00069
81,38099	0,93447	0,00094
81,38999	0,93633	0,00060
81,39899	0,93736	0,00051
81,40799	0,93973	0,00044
81,41699	0,94210	0,00079
81,42599	0,94439	0,00074
81,43499	0,94801	0,00084
81,44399	0,95116	0,00069
81,45299	0,95361	0,00067
81,46199	0,95529	0,00090
81,47099	0,95577	0,00075
81,47999	0,95534	0,00073
81,48899	0,95465	0,00051
81,49799	0,95340	0,00069
81,50699	0,95098	0,00060
81,51599	0,94956	0,00063
81,52499	0,94710	0,00071
81,53399	0,94572	0,00074
81,54299	0,94361	0,00062
81,55199	0,94146	0,00065
81,56099	0,93883	0,00087
81,56999	0,93689	0,00066
81,57899	0,93486	0,00058
81,58799	0,93253	0,00078
81,59699	0,93098	0,00075
81,60599	0,93007	0,00106
81,61499	0,92788	0,00069
81,62399	0,92671	0,00060
81,63299	0,92645	0,00052
81,64199	0,92542	0,00074
81,65099	0,92594	0,00065
81,65999	0,92594	0,00058
81,66899	0,92602	0,00087
81,67799	0,92671	0,00046
81,68699	0,92796	0,00084
81,69599	0,92857	0,00060
81,70499	0,92969	0,00058
81,71399	0,93150	0,00063
81,72299	0,93301	0,00063
81,73199	0,93439	0,00077
81,74099	0,93615	0,00051
81,74999	0,93788	0,00075
81,75899	0,93930	0,00073
81,76799	0,94133	0,00058
81,77699	0,94357	0,00068
81,78599	0,94603	0,00075
81,79499	0,94866	0,00064
81,80399	0,95176	0,00074
81,81299	0,95521	0,00068
81,82199	0,95788	0,00054
81,83099	0,95991	0,00069
81,83999	0,96094	0,00080
81,84899	0,96176	0,00066
81,85799	0,96098	0,00056
81,86699	0,95961	0,00071
81,87599	0,95775	0,00077
81,88499	0,95594	0,00072
81,89399	0,95348	0,00068
81,90299	0,95094	0,00065
81,91199	0,94870	0,00079
81,92099	0,94603	0,00079
81,92999	0,94335	0,00079
81,93899	0,94107	0,00066
81,94799	0,93844	0,00087
81,95699	0,93676	0,00060
81,96599	0,93482	0,00064
81,97499	0,93245	0,00060
81,98399	0,92973	0,00079
81,99299	0,92839	0,00084
82,00199	0,92792	0,00096
82,01099	0,92809	0,00073
82,01999	0,92727	0,00066
82,02899	0,92693	0,00068
82,03799	0,92822	0,00078
82,04699	0,92938	0,00052
82,05599	0,92982	0,00048
82,06499	0,93120	0,00067
82,07399	0,93266	0,00067
82,08299	0,93370	0,00070
82,09199	0,93439	0,00067
82,10099	0,93646	0,00069
82,10999	0,93904	0,00057
82,11899	0,94085	0,00070
82,12799	0,94301	0,00061
82,13699	0,94521	0,00117
82,14599	0,94641	0,00075
82,15499	0,94771	0,00051
82,16399	0,95159	0,00079
82,17299	0,95379	0,00079
82,18199	0,95685	0,00058
82,19099	0,96060	0,00084
82,19999	0,96396	0,00048
82,20899	0,96629	0,00072
82,21799	0,96737	0,00054
82,22699	0,96797	0,00058
82,23599	0,96637	0,00081
82,24499	0,96443	0,00074
82,25399	0,96249	0,00079
82,26299	0,95973	0,00069
82,27199	0,95792	0,00048
82,28099	0,95573	0,00071
82,28999	0,95219	0,00078
82,29899	0,94870	0,00074
82,30799	0,94564	0,00084
82,31699	0,94184	0,00068
82,32599	0,93865	0,00075
82,33499	0,93572	0,00096
82,34399	0,93210	0,00103
82,35299	0,92891	0,00056
82,36199	0,92645	0,00065
82,37099	0,92331	0,00063
82,37999	0,92167	0,00081
82,38899	0,91990	0,00065
82,39799	0,91951	0,00046
82,40699	0,91917	0,00078
82,41599	0,91904	0,00058
82,42499	0,91951	0,00054
82,43399	0,91960	0,00074
82,44299	0,92141	0,00075
82,45199	0,92262	0,00056
82,46099	0,92555	0,00066
82,46999	0,92943	0,00054
82,47899	0,93180	0,00072
82,48799	0,93400	0,00069
82,49699	0,93831	0,00058
82,50599	0,94154	0,00067
82,51499	0,94292	0,00066
82,52399	0,94650	0,00069
82,53299	0,95003	0,00056
82,54199	0,95120	0,00058
82,55099	0,95396	0,00055
82,55999	0,95672	0,00054
82,56899	0,96017	0,00046
82,57799	0,96349	0,00071
82,58699	0,96616	0,00078
82,59599	0,96818	0,00065
82,60499	0,96978	0,00088
82,61399	0,96969	0,00058
82,62299	0,96849	0,00064
82,63199	0,96668	0,00064
82,64099	0,96336	0,00074
82,64999	0,96012	0,00078
82,65899	0,95689	0,00072
82,66799	0,95430	0,00046
82,67699	0,95124	0,00058
82,68599	0,94831	0,00074
82,69499	0,94452	0,00066
82,70399	0,94046	0,00051
82,71299	0,93684	0,00056
82,72199	0,93314	0,00075
82,73099	0,92874	0,00075
82,73999	0,92555	0,00060
82,74899	0,92193	0,00075
82,75799	0,91912	0,00067
82,76699	0,91619	0,00086
82,77599	0,91473	0,00080
82,78499	0,91490	0,00084
82,79399	0,91365	0,00051
82,80299	0,91524	0,00084
82,81199	0,91559	0,00052
82,82099	0,91706	0,00066
82,82999	0,91986	0,00063
82,83899	0,92137	0,00081
82,84799	0,92607	0,00063
82,85699	0,92926	0,00064
82,86599	0,93270	0,00051
82,87499	0,93581	0,00068
82,88399	0,93758	0,00082
82,89299	0,94085	0,00070
82,90199	0,94378	0,00066
82,91099	0,94663	0,00080
82,91999	0,94960	0,00068
82,92899	0,95323	0,00068
82,93799	0,95629	0,00092
82,94699	0,95930	0,00077
82,95599	0,96262	0,00081
82,96499	0,96698	0,00058
82,97399	0,96943	0,00074
82,98299	0,97176	0,00056
82,99199	0,97323	0,00069
83,00099	0,97219	0,00074
83,00999	0,97047	0,00074
83,01899	0,96844	0,00064
83,02799	0,96486	0,00056
83,03699	0,96163	0,00057
83,04599	0,95848	0,00079
83,05499	0,95391	0,00074
83,06399	0,94935	0,00068
83,07299	0,94512	0,00092
83,08199	0,93960	0,00058
83,09099	0,93589	0,00071
83,09999	0,93314	0,00069
83,10899	0,92895	0,00062
83,11799	0,92486	0,00058
83,12699	0,92188	0,00079
83,13599	0,91960	0,00056
83,14499	0,91611	0,00065
83,15399	0,91399	0,00092
83,16299	0,91257	0,00062
83,17199	0,91085	0,00091
83,18099	0,91072	0,00069
83,18999	0,91089	0,00066
83,19899	0,91180	0,00070
83,20799	0,91330	0,00084
83,21699	0,91593	0,00063
83,22599	0,91835	0,00057
83,23499	0,92089	0,00078
83,24399	0,92378	0,00078
83,25299	0,92701	0,00058
83,26199	0,93076	0,00084
83,27099	0,93387	0,00042
83,27999	0,93740	0,00051
83,28899	0,94085	0,00064
83,29799	0,94426	0,00064
83,30699	0,94814	0,00079
83,31599	0,95103	0,00062
83,32499	0,95396	0,00067
83,33399	0,95745	0,00081
83,34299	0,96025	0,00055
83,35199	0,96400	0,00074
83,36099	0,96797	0,00058
83,36999	0,97133	0,00083
83,37899	0,97301	0,00065
83,38799	0,97469	0,00071
83,39699	0,97413	0,00066
83,40599	0,97262	0,00074
83,41499	0,96935	0,00069
83,42399	0,96655	0,00067
83,43299	0,96146	0,00063
83,44199	0,95771	0,00075
83,45099	0,95297	0,00096
83,45999	0,94741	0,00046
83,46899	0,94318	0,00065
83,47799	0,93870	0,00094
83,48699	0,93365	0,00041
83,49599	0,92870	0,00079
83,50499	0,92326	0,00066
83,51399	0,91585	0,00070
83,52299	0,90977	0,00075
83,53199	0,90507	0,00067
83,54099	0,90033	0,00070
83,54999	0,89662	0,00075
83,55899	0,89231	0,00070
83,56799	0,89046	0,00075
83,57699	0,88791	0,00081
83,58599	0,88778	0,00069
83,59499	0,88886	0,00070
83,60399	0,89097	0,00056
83,61299	0,89429	0,00070
83,62199	0,89882	0,00046
83,63099	0,90214	0,00103
83,63999	0,90692	0,00049
83,64899	0,91188	0,00077
83,65799	0,91706	0,00090
83,66699	0,92206	0,00082
83,67599	0,92801	0,00096
83,68499	0,93417	0,00077
83,69399	0,93796	0,00078
83,70299	0,94258	0,00064
83,71199	0,94637	0,00072
83,72099	0,94978	0,00068
83,72999	0,95366	0,00056
83,73899	0,95771	0,00075
83,74799	0,96245	0,00075
83,75699	0,96603	0,00073
83,76599	0,97021	0,00079
83,77499	0,97349	0,00063
83,78399	0,97525	0,00069
83,79299	0,97603	0,00073
83,80199	0,97478	0,00056
83,81099	0,97288	0,00074
83,81999	0,96982	0,00094
83,82899	0,96637	0,00066
83,83799	0,96107	0,00064
83,84699	0,95637	0,00079
83,85599	0,95193	0,00083
83,86499	0,94603	0,00058
83,87399	0,94064	0,00060
83,88299	0,93266	0,00061
83,89199	0,92460	0,00087
83,90099	0,91662	0,00088
83,90999	0,90938	0,00067
83,91899	0,90085	0,00086
83,92799	0,89162	0,00050
83,93699	0,88192	0,00068
83,94599	0,87308	0,00066
83,95499	0,86455	0,00067
83,96399	0,85955	0,00080
83,97299	0,85411	0,00066
83,98199	0,85135	0,00067
83,99099	0,85092	0,00065
83,99999	0,85248	0,00077
84,00899	0,85782	0,00075
84,01799	0,86412	0,00079
84,02699	0,87308	0,00060
84,03599	0,88166	0,00056
84,04499	0,88929	0,00073
84,05399	0,89735	0,00075
84,06299	0,90537	0,00063
84,07199	0,91141	0,00063
84,08099	0,91852	0,00074
84,08999	0,92559	0,00052
84,09899	0,93227	0,00069
84,10799	0,93693	0,00051
84,11699	0,94206	0,00072
84,12599	0,94667	0,00077
84,13499	0,95064	0,00056
84,14399	0,95482	0,00078
84,15299	0,95956	0,00058
84,16199	0,96344	0,00078
84,17099	0,96831	0,00063
84,17999	0,97237	0,00084
84,18899	0,97581	0,00079
84,19799	0,97698	0,00063
84,20699	0,97685	0,00077
84,21599	0,97547	0,00063
84,22499	0,97211	0,00071
84,23399	0,96857	0,00068
84,24299	0,96418	0,00069
84,25199	0,95909	0,00099
84,26099	0,95335	0,00077
84,26999	0,94672	0,00062
84,27899	0,94021	0,00060
84,28799	0,93460	0,00081
84,29699	0,92706	0,00064
84,30599	0,91981	0,00072
84,31499	0,91046	0,00071
84,32399	0,90201	0,00058
84,33299	0,89145	0,00058
84,34199	0,88179	0,00061
84,35099	0,87006	0,00069
84,35999	0,85761	0,00079
84,36899	0,84804	0,00074
84,37799	0,83674	0,00037
84,38699	0,83045	0,00092
84,39599	0,82859	0,00048
84,40499	0,83109	0,00080
84,41399	0,83661	0,00050
84,42299	0,84424	0,00075
84,43199	0,85355	0,00066
84,44099	0,86338	0,00078
84,44999	0,87321	0,00075
84,45899	0,88537	0,00056
84,46799	0,89606	0,00079
84,47699	0,90283	0,00050
84,48599	0,91007	0,00075
84,49499	0,91658	0,00068
84,50399	0,92249	0,00065
84,51299	0,92865	0,00063
84,52199	0,93469	0,00078
84,53099	0,93870	0,00067
84,53999	0,94374	0,00068
84,54899	0,94939	0,00088
84,55799	0,95348	0,00063
84,56699	0,95754	0,00074
84,57599	0,96275	0,00054
84,58499	0,96771	0,00056
84,59399	0,97103	0,00051
84,60299	0,97448	0,00058
84,61199	0,97547	0,00068
84,62099	0,97426	0,00081
84,62999	0,97228	0,00064
84,63899	0,96836	0,00057
84,64799	0,96435	0,00060
84,65699	0,95861	0,00081
84,66599	0,95197	0,00063
84,67499	0,94672	0,00062
84,68399	0,93960	0,00088
84,69299	0,93158	0,00090
84,70199	0,92443	0,00069
84,71099	0,91322	0,00069
84,71999	0,90024	0,00063
84,72899	0,88744	0,00088
84,73799	0,87269	0,00069
84,74699	0,85092	0,00058
84,75599	0,82670	0,00066
84,76499	0,75862	0,00129
84,77399	0,00475	0,00548
84,78299	0,00716	0,00672
84,79199	0,01191	0,00895
84,80099	0,01721	0,00946
84,80999	0,01988	0,00841
84,81899	0,01398	0,00956
84,82799	0,01781	0,00970
84,83699	0,02118	0,00788
84,84599	0,25746	0,02663
84,85499	0,76720	0,00128
84,86399	0,81501	0,00064
84,87299	0,84407	0,00066
84,88199	0,86054	0,00049
84,89099	0,87873	0,00064
84,89999	0,89490	0,00065
84,90899	0,90572	0,00066
84,91799	0,91637	0,00046
84,92699	0,92585	0,00060
84,93599	0,93426	0,00068
84,94499	0,94090	0,00079
84,95399	0,94745	0,00074
84,96299	0,95210	0,00088
84,97199	0,95711	0,00068
84,98099	0,96193	0,00079
84,98999	0,96659	0,00078
84,99899	0,97103	0,00075
85,00799	0,97418	0,00074
85,01699	0,97564	0,00068
85,02599	0,97495	0,00064
85,03499	0,97181	0,00063
85,04399	0,96745	0,00056
85,05299	0,96314	0,00068
85,06199	0,95784	0,00080
85,07099	0,95055	0,00086
85,07999	0,94275	0,00067
85,08899	0,93439	0,00086
85,09799	0,92111	0,00088
85,10699	0,90567	0,00062
85,11599	0,88925	0,00087
85,12499	0,86472	0,00080
85,13399	0,84023	0,00070
85,14299	0,77518	0,00160
85,15199	0,01678	0,00680
85,16099	0,01475	0,00772
85,16999	0,01061	0,00958
85,17899	0,00854	0,00955
85,18799	0,00544	0,00922
85,19699	0,00488	0,00858
85,20599	0,01307	0,00864
85,21499	0,00979	0,00949
85,22399	0,00617	0,00929
85,23299	0,00479	0,00868
85,24199	0,00316	0,00794
85,25099	0,00057	0,00660
85,25999	0,00055	0,00597
85,26899	0,00266	0,00308
85,27799	0,30001	0,01876
85,28699	0,81139	0,00087
85,29599	0,84937	0,00074
85,30499	0,87433	0,00078
85,31399	0,89033	0,00054
85,32299	0,90675	0,00084
85,33199	0,92145	0,00077
85,34099	0,93240	0,00055
85,34999	0,93982	0,00062
85,35899	0,94624	0,00060
85,36799	0,95133	0,00049
85,37699	0,95711	0,00074
85,38599	0,96271	0,00068
85,39499	0,96788	0,00068
85,40399	0,97163	0,00093
85,41299	0,97508	0,00065
85,42199	0,97594	0,00052
85,43099	0,97508	0,00070
85,43999	0,97137	0,00086
85,44899	0,96663	0,00057
85,45799	0,96055	0,00068
85,46699	0,95353	0,00065
85,47599	0,94495	0,00081
85,48499	0,93693	0,00043
85,49399	0,92744	0,00075
85,50299	0,91391	0,00081
85,51199	0,89744	0,00087
85,52099	0,87132	0,00083
85,52999	0,83864	0,00069
85,53899	0,76854	0,00087
85,54799	0,02583	0,00512
85,55699	0,02751	0,00327
85,56599	0,02725	0,00256
85,57499	0,02708	0,00291
85,58399	0,02730	0,00298
85,59299	0,02678	0,00208
85,60199	0,02734	0,00278
85,61099	0,02932	0,00394
85,61999	0,03368	0,00909
85,62899	0,03613	0,00978
85,63799	0,03682	0,00891
85,64699	0,03842	0,00807
85,65599	0,04114	0,00699
85,66499	0,04101	0,00646
85,67399	0,03825	0,00438
85,68299	0,11606	0,00858
85,69199	0,81143	0,00084
85,70099	0,85834	0,00080
85,70999	0,88356	0,00069
85,71899	0,90106	0,00063
85,72799	0,91270	0,00063
85,73699	0,92400	0,00064
85,74599	0,93189	0,00066
85,75499	0,93969	0,00063
85,76399	0,94775	0,00051
85,77299	0,95417	0,00075
85,78199	0,95978	0,00058
85,79099	0,96568	0,00062
85,79999	0,97060	0,00082
85,80899	0,97435	0,00056
85,81799	0,97676	0,00068
85,82699	0,97724	0,00078
85,83599	0,97577	0,00082
85,84499	0,97142	0,00079
85,85399	0,96629	0,00077
85,86299	0,95943	0,00088
85,87199	0,95163	0,00061
85,88099	0,94176	0,00075
85,88999	0,93258	0,00060
85,89899	0,92089	0,00087
85,90799	0,90744	0,00081
85,91699	0,88257	0,00072
85,92599	0,84403	0,00065
85,93499	0,69974	0,00199
85,94399	0,01469	0,00771
85,95299	0,01693	0,00701
85,96199	0,01655	0,00628
85,97099	0,01327	0,00846
85,97999	0,01461	0,00809
85,98899	0,01538	0,00808
85,99799	0,01629	0,00661
86,00699	0,01650	0,00649
86,01599	0,01715	0,00713
86,02499	0,01555	0,00606
86,03399	0,01435	0,00478
86,04299	0,01301	0,00401
86,05199	0,01323	0,00340
86,06099	0,01340	0,00337
86,06999	0,01336	0,00404
86,07899	0,01318	0,00381
86,08799	0,01219	0,00465
86,09699	0,01193	0,00484
86,10599	0,00642	0,00274
86,11499	0,10623	0,00650
86,12399	0,83144	0,00096
86,13299	0,87869	0,00079
86,14199	0,89994	0,00096
86,15099	0,91865	0,00054
86,15999	0,93258	0,00060
86,16899	0,94146	0,00058
86,17799	0,94904	0,00090
86,18699	0,95525	0,00058
86,19599	0,96142	0,00063
86,20499	0,96866	0,00054
86,21399	0,97349	0,00074
86,22299	0,97676	0,00074
86,23199	0,97969	0,00064
86,24099	0,97888	0,00084
86,24999	0,97534	0,00064
86,25899	0,97025	0,00074
86,26799	0,96409	0,00064
86,27699	0,95538	0,00063
86,28599	0,94659	0,00068
86,29499	0,93309	0,00088
86,30399	0,91369	0,00055
86,31299	0,88903	0,00069
86,32199	0,85170	0,00086
86,33099	0,01975	0,00883
86,33999	0,01911	0,00837
86,34899	0,01997	0,00806
86,35799	0,00941	0,00755
86,36699	0,00910	0,00716
86,37599	0,00958	0,00782
86,38499	0,01044	0,00777
86,39399	0,01191	0,00865
86,40299	0,01294	0,00889
86,41199	0,01441	0,00912
86,42099	0,01605	0,00955
86,42999	0,01712	0,00941
86,43899	0,01790	0,00936
86,44799	0,01885	0,00863
86,45699	0,02738	0,00331
86,46599	0,02066	0,00783
86,47499	0,02687	0,00309
86,48399	0,02665	0,00265
86,49299	0,02674	0,00277
86,50199	0,02648	0,00253
86,51099	0,02687	0,00254
86,51999	0,02708	0,00296
86,52899	0,02786	0,00327
86,53799	0,02919	0,00398
86,54699	0,82208	0,00071
86,55599	0,86938	0,00084
86,56499	0,89697	0,00069
86,57399	0,91546	0,00058
86,58299	0,93055	0,00058
86,59199	0,94219	0,00064
86,60099	0,95098	0,00071
86,60999	0,95810	0,00084
86,61899	0,96396	0,00073
86,62799	0,96978	0,00069
86,63699	0,97370	0,00084
86,64599	0,97551	0,00078
86,65499	0,97534	0,00075
86,66399	0,97112	0,00042
86,67299	0,96633	0,00069
86,68199	0,95818	0,00092
86,69099	0,94857	0,00104
86,69999	0,93908	0,00051
86,70899	0,92279	0,00043
86,71799	0,90300	0,00063
86,72699	0,87399	0,00033
86,73599	0,82411	0,00066
86,74499	0,03350	0,00432
86,75399	0,03243	0,00372
86,76299	0,03144	0,00308
86,77199	0,02971	0,00382
86,78099	0,02855	0,00392
86,78999	0,02846	0,00345
86,79899	0,02721	0,00412
86,80799	0,02562	0,00512
86,81699	0,02294	0,00550
86,82599	0,02074	0,00479
86,83499	0,01855	0,00571
86,84399	0,01363	0,00853
86,85299	0,00785	0,00947
86,86199	0,00314	0,00365
86,87099	0,00341	0,00840
86,87999	0,00241	0,00280
86,88899	0,00305	0,00307
86,89799	0,00728	0,00692
86,90699	0,01064	0,00969
86,91599	0,01185	0,00978
86,92499	0,01288	0,00854
86,93399	0,01137	0,00992
86,94299	0,01211	0,00955
86,95199	0,01461	0,00858
86,96099	0,79889	0,00078
86,96999	0,86795	0,00064
86,97899	0,89188	0,00048
86,98799	0,90843	0,00060
86,99699	0,92262	0,00049
87,00599	0,93335	0,00080
87,01499	0,94202	0,00078
87,02399	0,95038	0,00064
87,03299	0,95848	0,00079
87,04199	0,96418	0,00069
87,05099	0,96987	0,00068
87,05999	0,97327	0,00081
87,06899	0,97370	0,00079
87,07799	0,97090	0,00074
87,08699	0,96564	0,00090
87,09599	0,95745	0,00071
87,10499	0,94818	0,00098
87,11399	0,93555	0,00083
87,12299	0,92309	0,00046
87,13199	0,90261	0,00063
87,14099	0,87231	0,00067
87,14999	0,80178	0,00108
87,15899	0,02441	0,00622
87,16799	0,02643	0,00469
87,17699	0,02747	0,00323
87,18599	0,02730	0,00301
87,19499	0,02695	0,00242
87,20399	0,02687	0,00268
87,21299	0,02816	0,00329
87,22199	0,03096	0,00658
87,23099	0,03859	0,00914
87,23999	0,03920	0,00822
87,24899	0,04126	0,00704
87,25799	0,04096	0,00661
87,26699	0,03950	0,00606
87,27599	0,03751	0,00365
87,28499	0,03751	0,00354
87,29399	0,03764	0,00399
87,30299	0,03631	0,00499
87,31199	0,03769	0,00325
87,32099	0,03769	0,00381
87,32999	0,03747	0,00425
87,33899	0,03583	0,00518
87,34799	0,03445	0,00465
87,35699	0,03264	0,00393
87,36599	0,03260	0,00342
87,37499	0,03208	0,00322
87,38399	0,03139	0,00298
87,39299	0,03096	0,00350
87,40199	0,83040	0,00063
87,41099	0,87726	0,00066
87,41999	0,90223	0,00067
87,42899	0,92072	0,00087
87,43799	0,93525	0,00072
87,44699	0,94603	0,00058
87,45599	0,95404	0,00058
87,46499	0,96142	0,00078
87,47399	0,96693	0,00077
87,48299	0,97103	0,00070
87,49199	0,97189	0,00051
87,50099	0,96896	0,00086
87,50999	0,96469	0,00049
87,51899	0,95611	0,00070
87,52799	0,94654	0,00066
87,53699	0,93158	0,00071
87,54599	0,90852	0,00055
87,55499	0,88304	0,00064
87,56399	0,83359	0,00066
87,57299	0,01206	0,00950
87,58199	0,01491	0,00791
87,59099	0,01737	0,00680
87,59999	0,01435	0,00436
87,60899	0,01344	0,00383
87,61799	0,00715	0,00290
87,62699	0,00379	0,00345
87,63599	0,00335	0,00372
87,64499	0,00124	0,00469
87,65399	0,00247	0,00468
87,66299	0,00492	0,00577
87,67199	0,01010	0,00831
87,68099	0,01497	0,00943
87,68999	0,01880	0,00917
87,69899	0,01238	0,00912
87,70799	0,01712	0,00919
87,71699	0,01902	0,00868
87,72599	0,02118	0,00837
87,73499	0,02368	0,00688
87,74399	0,02656	0,00451
87,75299	0,02738	0,00329
87,76199	0,02704	0,00297
87,77099	0,02669	0,00258
87,77999	0,03592	0,00988
87,78899	0,02859	0,00418
87,79799	0,03743	0,00879
87,80699	0,03907	0,00831
87,81599	0,04070	0,00689
87,82499	0,04135	0,00669
87,83399	0,81587	0,00051
87,84299	0,87463	0,00067
87,85199	0,90033	0,00079
87,86099	0,92292	0,00073
87,86999	0,93309	0,00058
87,87899	0,94426	0,00069
87,88799	0,95335	0,00090
87,89699	0,96116	0,00084
87,90599	0,96646	0,00058
87,91499	0,97034	0,00067
87,92399	0,96995	0,00090
87,93299	0,96668	0,00084
87,94199	0,96030	0,00064
87,95099	0,95021	0,00041
87,95999	0,93900	0,00092
87,96899	0,92572	0,00058
87,97799	0,90546	0,00075
87,98699	0,87420	0,00058
87,99599	0,76884	0,00181
88,00499	0,00531	0,00935
88,01399	0,00327	0,00283
88,02299	0,00083	0,00721
88,03199	0,00180	0,00477
88,04099	0,00331	0,00332
88,04999	0,00310	0,00315
88,05899	0,00254	0,00253
88,06799	0,00266	0,00301
88,07699	0,00323	0,00325
88,08599	0,00310	0,00280
88,09499	0,00266	0,00284
88,10399	0,00435	0,00333
88,11299	0,00784	0,00777
88,12199	0,01073	0,00974
88,13099	0,01211	0,00963
88,13999	0,01236	0,00925
88,14899	0,01383	0,00903
88,15799	0,01487	0,00877
88,16699	0,01689	0,00717
88,17599	0,01698	0,00718
88,18499	0,01659	0,00694
88,19399	0,01599	0,00599
88,20299	0,01193	0,00525
88,21199	0,01163	0,00550
88,22099	0,01073	0,00527
88,22999	0,00995	0,00485
88,23899	0,00952	0,00509
88,24799	0,00926	0,00436
88,25699	0,00935	0,00480
88,26599	0,72082	0,00102
88,27499	0,86062	0,00069
88,28399	0,89214	0,00061
88,29299	0,91520	0,00054
88,30199	0,92714	0,00063
88,31099	0,93947	0,00077
88,31999	0,94896	0,00060
88,32899	0,95784	0,00052
88,33799	0,96452	0,00058
88,34699	0,96784	0,00065
88,35599	0,96818	0,00058
88,36499	0,96599	0,00056
88,37399	0,96034	0,00072
88,38299	0,95245	0,00079
88,39199	0,94025	0,00065
88,40099	0,92723	0,00055
88,40999	0,90598	0,00069
88,41899	0,86808	0,00066
88,42799	0,60571	0,00623
88,43699	0,00064	0,00527
88,44599	0,00165	0,00491
88,45499	0,00337	0,00493
88,46399	0,00275	0,00398
88,47299	0,00014	0,00537
88,48199	0,00208	0,00501
88,49099	0,00402	0,00542
88,49999	0,00544	0,00556
88,50899	0,00846	0,00714
88,51799	0,01385	0,00922
88,52699	0,01790	0,00922
88,53599	0,01997	0,00847
88,54499	0,02260	0,00747
88,55399	0,02562	0,00455
88,56299	0,02928	0,00489
88,57199	0,02665	0,00240
88,58099	0,02669	0,00267
88,58999	0,02743	0,00333
88,59899	0,03678	0,00928
88,60799	0,03786	0,00931
88,61699	0,03993	0,00772
88,62599	0,04109	0,00689
88,63499	0,04088	0,00661
88,64399	0,03868	0,00464
88,65299	0,03984	0,00768
88,66199	0,04083	0,00666
88,67099	0,04036	0,00651
88,67999	0,03889	0,00550
88,68899	0,03721	0,00378
88,69799	0,03738	0,00427
88,70699	0,03756	0,00363
88,71599	0,03734	0,00358
88,72499	0,03764	0,00407
88,73399	0,83644	0,00057
88,74299	0,88175	0,00075
88,75199	0,91296	0,00078
88,76099	0,93245	0,00060
88,76999	0,94603	0,00070
88,77899	0,95452	0,00049
88,78799	0,96155	0,00064
88,79699	0,96637	0,00066
88,80599	0,96797	0,00075
88,81499	0,96672	0,00051
88,82399	0,96163	0,00057
88,83299	0,95400	0,00071
88,84199	0,94258	0,00070
88,85099	0,92589	0,00056
88,85999	0,90486	0,00071
88,86899	0,86343	0,00078
88,87799	0,40197	0,00713
88,88699	0,03540	0,00505
88,89599	0,03536	0,00527
88,90499	0,03523	0,00486
88,91399	0,03088	0,00351
88,92299	0,03480	0,00495
88,93199	0,03437	0,00480
88,94099	0,03432	0,00499
88,94999	0,03381	0,00492
88,95899	0,02894	0,00369
88,96799	0,02898	0,00367
88,97699	0,03299	0,00421
88,98599	0,02881	0,00351
88,99499	0,02837	0,00310
89,00399	0,02842	0,00351
89,01299	0,02855	0,00374
89,02199	0,02859	0,00348
89,03099	0,02842	0,00376
89,03999	0,03217	0,00376
89,04899	0,03148	0,00307
89,05799	0,03109	0,00314
89,06699	0,03010	0,00291
89,07599	0,02932	0,00374
89,08499	0,02846	0,00395
89,09399	0,02790	0,00304
89,10299	0,02794	0,00326
89,11199	0,02773	0,00298
89,12099	0,02781	0,00338
89,12999	0,02764	0,00342
89,13899	0,02652	0,00373
89,14799	0,01893	0,00563
89,15699	0,01799	0,00592
89,16599	0,02441	0,00531
89,17499	0,01445	0,00733
89,18399	0,01273	0,00856
89,19299	0,83959	0,00107
89,20199	0,88274	0,00081
89,21099	0,91330	0,00075
89,21999	0,92982	0,00078
89,22899	0,94029	0,00068
89,23799	0,94930	0,00091
89,24699	0,95792	0,00082
89,25599	0,96292	0,00077
89,26499	0,96594	0,00084
89,27399	0,96530	0,00074
89,28299	0,96172	0,00073
89,29199	0,95469	0,00058
89,30099	0,94266	0,00084
89,30999	0,93068	0,00073
89,31899	0,91249	0,00042
89,32799	0,88683	0,00078
89,33699	0,79928	0,00078
89,34599	0,02372	0,00552
89,35499	0,02872	0,00352
89,36399	0,02661	0,00477
89,37299	0,02721	0,00341
89,38199	0,02786	0,00316
89,39099	0,02812	0,00385
89,39999	0,02812	0,00361
89,40899	0,02816	0,00390
89,41799	0,02924	0,00391
89,42699	0,03376	0,00462
89,43599	0,03424	0,00480
89,44499	0,03570	0,00490
89,45399	0,03588	0,00503
89,46299	0,03639	0,00509
89,47199	0,03674	0,00478
89,48099	0,03743	0,00402
89,48999	0,03747	0,00426
89,49899	0,03726	0,00366
89,50799	0,03764	0,00328
89,51699	0,03726	0,00387
89,52599	0,03730	0,00393
89,53499	0,03402	0,00471
89,54399	0,03376	0,00453
89,55299	0,03734	0,00384
89,56199	0,03463	0,00473
89,57099	0,03501	0,00510
89,57999	0,03514	0,00461
89,58899	0,03424	0,00463
89,59799	0,03350	0,00471
89,60699	0,03247	0,00426
89,61599	0,03738	0,00360
89,62499	0,03700	0,00483
89,63399	0,03665	0,00486
89,64299	0,03536	0,00493
89,65199	0,03363	0,00459
89,66099	0,76156	0,00079
89,66999	0,86437	0,00070
89,67899	0,90442	0,00109
89,68799	0,92318	0,00077
89,69699	0,93775	0,00072
89,70599	0,94797	0,00066
89,71499	0,95698	0,00044
89,72399	0,96224	0,00062
89,73299	0,96452	0,00069
89,74199	0,96249	0,00069
89,75099	0,95693	0,00049
89,75999	0,94628	0,00058
89,76899	0,93163	0,00080
89,77799	0,90973	0,00084
89,78699	0,86933	0,00075
89,79599	0,43292	0,03406
89,80499	0,01984	0,00517
89,81399	0,00609	0,00912
89,82299	0,01855	0,00587
89,83199	0,01592	0,00706
89,84099	0,01268	0,00884
89,84999	0,01057	0,00925
89,85899	0,00841	0,00980
89,86799	0,00600	0,00944
89,87699	0,00488	0,00916
89,88599	0,00384	0,00855
89,89499	0,00259	0,00792
89,90399	0,00238	0,00789
89,91299	0,00147	0,00754
89,92199	0,00060	0,00631
89,93099	0,00279	0,00281
89,93999	0,00301	0,00261
89,94899	0,00297	0,00291
89,95799	0,00318	0,00279
89,96699	0,00335	0,00276
89,97599	0,00379	0,00296
89,98499	0,00348	0,00307
89,99399	0,00465	0,00388
90,00299	0,00327	0,00331
90,01199	0,00323	0,00309
