angle-spectrum Gruppe 303.dat
04.10.2021
11:46:31
Gruppe 3
 Temp: NON
angel	 rel signal 	s (std. deviation)				
60,01000	0,71803	0,01074
60,02000	0,01426	0,00554
60,03000	0,01342	0,00693
60,04000	0,01291	0,00776
60,05000	0,01129	0,00851
60,06000	0,00981	0,00802
60,07000	0,00826	0,00753
60,08000	0,02760	0,00697
60,09000	0,10453	0,00735
60,10000	0,22559	0,00802
60,11000	0,35595	0,00846
60,12000	0,48373	0,00897
60,13000	0,62126	0,00692
60,14000	0,78075	0,00694
60,15000	0,87048	0,00650
60,16000	0,93198	0,00455
60,17000	0,92965	0,00496
60,18000	0,91479	0,00925
60,19000	0,82894	0,01216
60,20000	0,72080	0,01319
60,21000	0,56635	0,01306
60,22000	0,41067	0,01196
60,23000	0,28528	0,01195
60,24000	0,15169	0,00980
60,25000	0,04704	0,01012
60,26000	0,00206	0,00937
60,27000	0,00335	0,00839
60,28000	0,00496	0,00840
60,29000	0,00554	0,00739
60,30000	0,00638	0,00710
60,31000	0,00910	0,00807
60,32000	0,01136	0,00820
60,33000	0,01330	0,00718
60,34000	0,01510	0,00609
60,35000	0,01956	0,00517
60,36000	0,02105	0,00473
60,37000	0,02124	0,00517
60,38000	0,01601	0,00515
60,39000	0,01607	0,00499
60,40000	0,01581	0,00506
60,41000	0,01594	0,00529
60,42000	0,01556	0,00546
60,43000	0,01549	0,00566
60,44000	0,01543	0,00535
60,45000	0,01978	0,00501
60,46000	0,10615	0,00578
60,47000	0,22701	0,00568
60,48000	0,35795	0,00499
60,49000	0,47908	0,00499
60,50000	0,64671	0,00482
60,51000	0,78308	0,00513
60,52000	0,87991	0,00407
60,53000	0,94264	0,00400
60,54000	0,95420	0,00306
60,55000	0,92519	0,00343
60,56000	0,82978	0,00465
60,57000	0,67035	0,00720
60,58000	0,52804	0,00741
60,59000	0,39962	0,00553
60,60000	0,27062	0,00758
60,61000	0,14058	0,00546
60,62000	0,02482	0,00645
60,63000	0,02163	0,00676
60,64000	0,02550	0,00762
60,65000	0,02705	0,00834
60,66000	0,02867	0,00752
60,67000	0,03112	0,00718
60,68000	0,03171	0,00588
60,69000	0,03145	0,00618
60,70000	0,03119	0,00654
60,71000	0,03448	0,01063
60,72000	0,03526	0,01130
60,73000	0,03132	0,01303
60,74000	0,03022	0,01434
60,75000	0,02886	0,01456
60,76000	0,02105	0,01040
60,77000	0,01375	0,00801
60,78000	0,00696	0,01117
60,79000	0,00186	0,01385
60,80000	0,00738	0,01433
60,81000	0,04155	0,00930
60,82000	0,08128	0,01429
60,83000	0,20867	0,00932
60,84000	0,32029	0,00724
60,85000	0,44219	0,00735
60,86000	0,56951	0,00487
60,87000	0,75698	0,00584
60,88000	0,87306	0,00407
60,89000	0,94541	0,00320
60,90000	0,97319	0,00348
60,91000	0,97720	0,00431
60,92000	0,93643	0,00321
60,93000	0,85452	0,00496
60,94000	0,73928	0,00952
60,95000	0,58418	0,01005
60,96000	0,46157	0,01201
60,97000	0,33147	0,01355
60,98000	0,23244	0,01467
60,99000	0,11584	0,00412
61,00000	0,05356	0,00510
61,01000	0,02999	0,00538
61,02000	0,02869	0,00501
61,03000	0,02824	0,00442
61,04000	0,02889	0,00511
61,05000	0,02940	0,00567
61,06000	0,02734	0,00692
61,07000	0,02533	0,00929
61,08000	0,02049	0,01277
61,09000	0,01791	0,01294
61,10000	0,01526	0,01459
61,11000	0,01261	0,01514
61,12000	0,00660	0,01405
61,13000	0,00212	0,00924
61,14000	0,00425	0,00832
61,15000	0,00587	0,00727
61,16000	0,01071	0,00813
61,17000	0,00292	0,00682
61,18000	0,05660	0,00596
61,19000	0,14646	0,00559
61,20000	0,21939	0,00646
61,21000	0,34310	0,00631
61,22000	0,47733	0,00829
61,23000	0,63037	0,00747
61,24000	0,76279	0,00509
61,25000	0,85678	0,00401
61,26000	0,93850	0,00356
61,27000	0,94483	0,00407
61,28000	0,92616	0,00457
61,29000	0,88301	0,00551
61,30000	0,74794	0,00681
61,31000	0,59245	0,00808
61,32000	0,46086	0,00737
61,33000	0,33780	0,00765
61,34000	0,19827	0,00741
61,35000	0,12843	0,00763
61,36000	0,03987	0,00691
61,37000	0,01769	0,00693
61,38000	0,03132	0,00588
61,39000	0,03132	0,00543
61,40000	0,03145	0,00574
61,41000	0,03500	0,01116
61,42000	0,03351	0,01239
61,43000	0,03390	0,01309
61,44000	0,03274	0,01345
61,45000	0,03196	0,01266
61,46000	0,03067	0,00664
61,47000	0,03106	0,00669
61,48000	0,03125	0,00709
61,49000	0,03119	0,00659
61,50000	0,03151	0,00576
61,51000	0,03132	0,00611
61,52000	0,03158	0,00598
61,53000	0,03158	0,00694
61,54000	0,00658	0,00738
61,55000	0,05182	0,00771
61,56000	0,14924	0,00706
61,57000	0,25130	0,00744
61,58000	0,37178	0,00634
61,59000	0,51008	0,00634
61,60000	0,65614	0,00567
61,61000	0,81667	0,00448
61,62000	0,91609	0,00345
61,63000	0,94651	0,00442
61,64000	0,95846	0,00470
61,65000	0,94070	0,00475
61,66000	0,89690	0,00362
61,67000	0,74613	0,00688
61,68000	0,59988	0,00573
61,69000	0,47087	0,00515
61,70000	0,34490	0,00483
61,71000	0,23386	0,00522
61,72000	0,12391	0,00567
61,73000	0,04220	0,00564
61,74000	0,01284	0,00514
61,75000	0,01646	0,00527
61,76000	0,01594	0,00443
61,77000	0,01633	0,00616
61,78000	0,01575	0,00539
61,79000	0,01678	0,00519
61,80000	0,01691	0,00479
61,81000	0,01685	0,00563
61,82000	0,01724	0,00547
61,83000	0,01478	0,00575
61,84000	0,02886	0,00776
61,85000	0,03132	0,00648
61,86000	0,02454	0,00730
61,87000	0,03087	0,00568
61,88000	0,02938	0,00785
61,89000	0,03028	0,00720
61,90000	0,03138	0,00542
61,91000	0,00580	0,00658
61,92000	0,06526	0,00582
61,93000	0,17107	0,00804
61,94000	0,29148	0,00910
61,95000	0,41532	0,01003
61,96000	0,51273	0,01035
61,97000	0,69490	0,01045
61,98000	0,81486	0,00956
61,99000	0,90246	0,00742
62,00000	0,95814	0,00559
62,01000	0,96221	0,00552
62,02000	0,92707	0,00701
62,03000	0,87339	0,00874
62,04000	0,74412	0,01076
62,05000	0,58101	0,01346
62,06000	0,43334	0,01454
62,07000	0,32016	0,01478
62,08000	0,19704	0,01448
62,09000	0,08063	0,01257
62,10000	0,01590	0,01226
62,11000	0,03235	0,01282
62,12000	0,03190	0,01231
62,13000	0,03293	0,01246
62,14000	0,03229	0,01196
62,15000	0,03255	0,01278
62,16000	0,03351	0,01292
62,17000	0,03403	0,01240
62,18000	0,03487	0,01100
62,19000	0,03474	0,01074
62,20000	0,03565	0,01145
62,21000	0,03423	0,01033
62,22000	0,03203	0,00896
62,23000	0,03151	0,00687
62,24000	0,03100	0,00654
62,25000	0,03171	0,00606
62,26000	0,03545	0,01088
62,27000	0,03035	0,00944
62,28000	0,01422	0,00647
62,29000	0,10137	0,00734
62,30000	0,24420	0,00781
62,31000	0,35556	0,00658
62,32000	0,49271	0,00651
62,33000	0,62177	0,00562
62,34000	0,73986	0,00483
62,35000	0,87700	0,00430
62,36000	0,93870	0,00322
62,37000	0,94218	0,00302
62,38000	0,95833	0,00333
62,39000	0,91072	0,00389
62,40000	0,79160	0,00466
62,41000	0,70310	0,00522
62,42000	0,54070	0,00573
62,43000	0,39542	0,00644
62,44000	0,30789	0,00662
62,45000	0,17139	0,00708
62,46000	0,07301	0,00755
62,47000	0,00906	0,00787
62,48000	0,01711	0,00544
62,49000	0,01659	0,00549
62,50000	0,01614	0,00519
62,51000	0,01640	0,00575
62,52000	0,01543	0,00552
62,53000	0,00477	0,00817
62,54000	0,00393	0,00865
62,55000	0,00173	0,00922
62,56000	0,00057	0,00932
62,57000	0,00247	0,01148
62,58000	0,00725	0,01396
62,59000	0,01216	0,01449
62,60000	0,01293	0,01427
62,61000	0,01610	0,01371
62,62000	0,01681	0,01330
62,63000	0,01926	0,01278
62,64000	0,05822	0,01137
62,65000	0,12449	0,01096
62,66000	0,22042	0,01034
62,67000	0,35789	0,00859
62,68000	0,45110	0,00714
62,69000	0,60840	0,01326
62,70000	0,73999	0,01283
62,71000	0,84781	0,00450
62,72000	0,95665	0,00313
62,73000	1,00000	0,00179
62,74000	0,98973	0,00221
62,75000	0,98999	0,00229
62,76000	0,93695	0,00240
62,77000	0,84774	0,00310
62,78000	0,72468	0,00408
62,79000	0,59019	0,00420
62,80000	0,45117	0,00416
62,81000	0,35537	0,00454
62,82000	0,23224	0,00448
62,83000	0,12766	0,00492
62,84000	0,07430	0,00737
62,85000	0,03490	0,00977
62,86000	0,03871	0,01273
62,87000	0,04129	0,01412
62,88000	0,04400	0,01456
62,89000	0,04407	0,01385
62,90000	0,03418	0,00861
62,91000	0,03890	0,01254
62,92000	0,04226	0,01489
62,93000	0,04394	0,01466
62,94000	0,05008	0,01077
62,95000	0,04775	0,00996
62,96000	0,04620	0,00787
62,97000	0,04478	0,00611
62,98000	0,04543	0,00574
62,99000	0,04614	0,00599
63,00000	0,04581	0,00687
63,01000	0,07856	0,00719
63,02000	0,13761	0,00702
63,03000	0,21771	0,00806
63,04000	0,32772	0,00706
63,05000	0,41596	0,00617
63,06000	0,54135	0,00562
63,07000	0,66997	0,00535
63,08000	0,78379	0,00535
63,09000	0,86253	0,00394
63,10000	0,94070	0,00281
63,11000	0,96718	0,00329
63,12000	0,95659	0,00349
63,13000	0,92423	0,00405
63,14000	0,84374	0,00475
63,15000	0,72248	0,00664
63,16000	0,58340	0,00731
63,17000	0,46725	0,00652
63,18000	0,36080	0,00715
63,19000	0,26351	0,00757
63,20000	0,16345	0,00841
63,21000	0,08477	0,00818
63,22000	0,04207	0,00884
63,23000	0,01771	0,00821
63,24000	0,01726	0,00834
63,25000	0,01713	0,00807
63,26000	0,00361	0,01315
63,27000	0,01325	0,01130
63,28000	0,01183	0,01198
63,29000	0,00815	0,01345
63,30000	0,00725	0,01365
63,31000	0,00395	0,01484
63,32000	0,00117	0,01482
63,33000	0,01881	0,00777
63,34000	0,01700	0,00842
63,35000	0,01254	0,01117
63,36000	0,00751	0,01412
63,37000	0,00361	0,00936
63,38000	0,05053	0,01414
63,39000	0,09420	0,00532
63,40000	0,18670	0,00449
63,41000	0,27553	0,00450
63,42000	0,37301	0,00652
63,43000	0,47765	0,01274
63,44000	0,60705	0,01438
63,45000	0,73779	0,01361
63,46000	0,83921	0,01199
63,47000	0,90498	0,00866
63,48000	0,92481	0,00684
63,49000	0,92352	0,00687
63,50000	0,90142	0,00475
63,51000	0,80853	0,00595
63,52000	0,68973	0,00516
63,53000	0,55608	0,00718
63,54000	0,44083	0,00808
63,55000	0,32113	0,00616
63,56000	0,23115	0,00773
63,57000	0,14936	0,00578
63,58000	0,08968	0,00616
63,59000	0,02624	0,00541
63,60000	0,01168	0,00485
63,61000	0,01982	0,00524
63,62000	0,01833	0,00572
63,63000	0,01698	0,00629
63,64000	0,01698	0,00562
63,65000	0,01691	0,00518
63,66000	0,01672	0,00552
63,67000	0,01659	0,00561
63,68000	0,01711	0,00498
63,69000	0,01594	0,00552
63,70000	0,01575	0,00595
63,71000	0,01497	0,00598
63,72000	0,01317	0,00757
63,73000	0,00994	0,00806
63,74000	0,02107	0,00691
63,75000	0,06461	0,00810
63,76000	0,11319	0,00717
63,77000	0,18754	0,00821
63,78000	0,27197	0,00694
63,79000	0,37456	0,00814
63,80000	0,47811	0,00985
63,81000	0,63153	0,01170
63,82000	0,73922	0,00892
63,83000	0,85672	0,00559
63,84000	0,93411	0,00356
63,85000	0,96098	0,00316
63,86000	0,96680	0,00246
63,87000	0,93217	0,00264
63,88000	0,89354	0,00303
63,89000	0,78159	0,00432
63,90000	0,67365	0,00551
63,91000	0,54516	0,00845
63,92000	0,45692	0,01149
63,93000	0,35085	0,01386
63,94000	0,26797	0,01444
63,95000	0,20395	0,01481
63,96000	0,12663	0,01375
63,97000	0,06519	0,00719
63,98000	0,03916	0,01315
63,99000	0,04200	0,01458
64,00000	0,04349	0,01474
64,01000	0,04375	0,01374
64,02000	0,04930	0,01070
64,03000	0,04723	0,00867
64,04000	0,04491	0,00694
64,05000	0,04620	0,00526
64,06000	0,04568	0,00605
64,07000	0,04336	0,00724
64,08000	0,03974	0,00762
64,09000	0,03780	0,00607
64,10000	0,03722	0,00536
64,11000	0,05350	0,00504
64,12000	0,08380	0,00627
64,13000	0,14478	0,00592
64,14000	0,23379	0,00552
64,15000	0,33605	0,00561
64,16000	0,43683	0,00564
64,17000	0,53211	0,00684
64,18000	0,66286	0,00550
64,19000	0,77164	0,00541
64,20000	0,85982	0,00481
64,21000	0,92817	0,00359
64,22000	0,96873	0,00289
64,23000	0,95917	0,00419
64,24000	0,91744	0,00547
64,25000	0,88411	0,00620
64,26000	0,76848	0,00754
64,27000	0,63547	0,00815
64,28000	0,53457	0,00796
64,29000	0,41260	0,00799
64,30000	0,30453	0,00871
64,31000	0,21894	0,00913
64,32000	0,13851	0,00909
64,33000	0,07521	0,00929
64,34000	0,03380	0,00919
64,35000	0,01836	0,00802
64,36000	0,01913	0,00750
64,37000	0,01849	0,00840
64,38000	0,01875	0,00832
64,39000	0,02049	0,00760
64,40000	0,03044	0,00497
64,41000	0,03128	0,00647
64,42000	0,03102	0,00622
64,43000	0,03302	0,00688
64,44000	0,03102	0,00510
64,45000	0,03767	0,00618
64,46000	0,03257	0,00600
64,47000	0,03464	0,00562
64,48000	0,06642	0,00560
64,49000	0,11610	0,00707
64,50000	0,18935	0,00737
64,51000	0,30020	0,00632
64,52000	0,39303	0,00624
64,53000	0,50653	0,00729
64,54000	0,60782	0,01356
64,55000	0,75465	0,01205
64,56000	0,83999	0,01181
64,57000	0,93837	0,00843
64,58000	0,97087	0,00755
64,59000	0,96757	0,00451
64,60000	0,95510	0,00282
64,61000	0,91841	0,00689
64,62000	0,80698	0,01067
64,63000	0,69897	0,01404
64,64000	0,56771	0,01471
64,65000	0,45834	0,01242
64,66000	0,34381	0,01388
64,67000	0,24768	0,01474
64,68000	0,13528	0,01261
64,69000	0,05951	0,00864
64,70000	0,01403	0,00781
64,71000	0,00625	0,00759
64,72000	0,01052	0,00790
64,73000	0,01381	0,00696
64,74000	0,01620	0,00561
64,75000	0,01743	0,00535
64,76000	0,01698	0,00584
64,77000	0,01930	0,00580
64,78000	0,02202	0,00551
64,79000	0,02292	0,00608
64,80000	0,02441	0,00648
64,81000	0,02492	0,00602
64,82000	0,03196	0,00647
64,83000	0,02014	0,00678
64,84000	0,02424	0,00811
64,85000	0,07805	0,00632
64,86000	0,16668	0,00821
64,87000	0,28625	0,00806
64,88000	0,37636	0,00702
64,89000	0,47003	0,00676
64,90000	0,59199	0,00644
64,91000	0,72113	0,00537
64,92000	0,80071	0,00527
64,93000	0,91525	0,00372
64,94000	0,94561	0,00310
64,95000	0,93379	0,00287
64,96000	0,92423	0,00320
64,97000	0,84619	0,00453
64,98000	0,72946	0,00560
64,99000	0,61364	0,00548
65,00000	0,50530	0,00602
65,01000	0,38877	0,00555
65,02000	0,30524	0,00577
65,03000	0,19755	0,00567
65,04000	0,09594	0,00759
65,05000	0,03167	0,00814
65,06000	0,00234	0,00595
65,07000	0,02667	0,00753
65,08000	0,02789	0,00839
65,09000	0,02085	0,00509
65,10000	0,02273	0,00514
65,11000	0,02363	0,00622
65,12000	0,02376	0,00599
65,13000	0,02441	0,00678
65,14000	0,02505	0,00705
65,15000	0,02596	0,00754
65,16000	0,02796	0,00806
65,17000	0,02848	0,00719
65,18000	0,01924	0,00719
65,19000	0,02055	0,00701
65,20000	0,06978	0,00610
65,21000	0,15020	0,00518
65,22000	0,24730	0,00571
65,23000	0,34155	0,00649
65,24000	0,43819	0,00644
65,25000	0,55802	0,01292
65,26000	0,66499	0,01318
65,27000	0,79257	0,00886
65,28000	0,86454	0,01060
65,29000	0,93915	0,00841
65,30000	0,94574	0,00871
65,31000	0,91609	0,00756
65,32000	0,84561	0,00931
65,33000	0,78934	0,01042
65,34000	0,65453	0,00981
65,35000	0,52869	0,00843
65,36000	0,42669	0,00643
65,37000	0,32062	0,00683
65,38000	0,22779	0,00620
65,39000	0,14697	0,00679
65,40000	0,05744	0,00793
65,41000	0,01687	0,00806
65,42000	0,00987	0,00632
65,43000	0,02227	0,00538
65,44000	0,01840	0,00573
65,45000	0,01743	0,00570
65,46000	0,02150	0,00475
65,47000	0,01840	0,00587
65,48000	0,01678	0,00603
65,49000	0,01665	0,00540
65,50000	0,01659	0,00532
65,51000	0,00496	0,00831
65,52000	0,00193	0,00898
65,53000	0,03057	0,01049
65,54000	0,07449	0,01294
65,55000	0,13812	0,01391
65,56000	0,21777	0,01427
65,57000	0,29652	0,01367
65,58000	0,39549	0,01283
65,59000	0,48999	0,01194
65,60000	0,58960	0,00963
65,61000	0,74658	0,00620
65,62000	0,84083	0,00444
65,63000	0,91234	0,00318
65,64000	0,95976	0,00184
65,65000	0,98275	0,00328
65,66000	0,97733	0,00611
65,67000	0,94690	0,00824
65,68000	0,86686	0,00483
65,69000	0,75911	0,00974
65,70000	0,64400	0,01310
65,71000	0,54523	0,01484
65,72000	0,44458	0,01048
65,73000	0,35279	0,01028
65,74000	0,27184	0,00928
65,75000	0,20989	0,00606
65,76000	0,13573	0,00572
65,77000	0,09562	0,00485
65,78000	0,06765	0,00650
65,79000	0,04775	0,00635
65,80000	0,04459	0,00605
65,81000	0,04349	0,00683
65,82000	0,04329	0,00702
65,83000	0,04220	0,00689
65,84000	0,04194	0,00766
65,85000	0,04058	0,00671
65,86000	0,04536	0,00729
65,87000	0,06655	0,00665
65,88000	0,09135	0,00680
65,89000	0,14071	0,00622
65,90000	0,19911	0,00632
65,91000	0,24794	0,00501
65,92000	0,32585	0,00781
65,93000	0,40362	0,00541
65,94000	0,50304	0,00742
65,95000	0,59354	0,00609
65,96000	0,70621	0,00631
65,97000	0,80918	0,00535
65,98000	0,90956	0,00407
65,99000	0,94910	0,00316
66,00000	0,96932	0,00302
66,01000	0,98236	0,00281
66,02000	0,94735	0,00312
66,03000	0,89296	0,00407
66,04000	0,82455	0,00486
66,05000	0,70627	0,00516
66,06000	0,57513	0,00549
66,07000	0,48702	0,00563
66,08000	0,38437	0,00561
66,09000	0,29723	0,00623
66,10000	0,23741	0,00729
66,11000	0,19181	0,00728
66,12000	0,13231	0,00709
66,13000	0,09982	0,00742
66,14000	0,06416	0,00537
66,15000	0,05260	0,00699
66,16000	0,03690	0,00559
66,17000	0,03735	0,00510
66,18000	0,03877	0,00581
66,19000	0,03819	0,00580
66,20000	0,03754	0,00507
66,21000	0,04736	0,00498
66,22000	0,06170	0,00552
66,23000	0,08496	0,00494
66,24000	0,12094	0,00593
66,25000	0,17210	0,00674
66,26000	0,23199	0,00509
66,27000	0,29245	0,00544
66,28000	0,36474	0,00524
66,29000	0,44697	0,00625
66,30000	0,55278	0,00702
66,31000	0,64096	0,01120
66,32000	0,76828	0,00574
66,33000	0,88450	0,00390
66,34000	0,92926	0,00447
66,35000	0,96131	0,00350
66,36000	0,96408	0,00465
66,37000	0,95536	0,00406
66,38000	0,89167	0,01019
66,39000	0,80168	0,01270
66,40000	0,71686	0,01338
66,41000	0,60026	0,01373
66,42000	0,48657	0,01249
66,43000	0,39019	0,01183
66,44000	0,30214	0,01046
66,45000	0,22139	0,00725
66,46000	0,15595	0,00537
66,47000	0,08884	0,00493
66,48000	0,04840	0,00434
66,49000	0,01603	0,00523
66,50000	0,00457	0,00560
66,51000	0,02266	0,01048
66,52000	0,02705	0,01461
66,53000	0,01491	0,00502
66,54000	0,02027	0,00754
66,55000	0,02434	0,01244
66,56000	0,02770	0,01231
66,57000	0,00722	0,01439
66,58000	0,00473	0,01088
66,59000	0,03483	0,00974
66,60000	0,08005	0,00888
66,61000	0,14852	0,00600
66,62000	0,23896	0,00641
66,63000	0,30957	0,00652
66,64000	0,39839	0,00555
66,65000	0,48237	0,00556
66,66000	0,58166	0,00673
66,67000	0,68889	0,00597
66,68000	0,81971	0,00617
66,69000	0,86945	0,00476
66,70000	0,92196	0,00376
66,71000	0,93075	0,00459
66,72000	0,93411	0,00386
66,73000	0,88249	0,00472
66,74000	0,82843	0,00951
66,75000	0,72080	0,01084
66,76000	0,59891	0,01233
66,77000	0,49103	0,01211
66,78000	0,40317	0,00631
66,79000	0,30576	0,00626
66,80000	0,22637	0,00673
66,81000	0,14762	0,00638
66,82000	0,08489	0,00708
66,83000	0,03884	0,00670
66,84000	0,00705	0,00722
66,85000	0,01375	0,00864
66,86000	0,02538	0,00964
66,87000	0,03190	0,00806
66,88000	0,03306	0,00883
66,89000	0,03274	0,00852
66,90000	0,03222	0,00713
66,91000	0,02408	0,00717
66,92000	0,00968	0,00679
66,93000	0,00893	0,00624
66,94000	0,03657	0,00558
66,95000	0,08011	0,00602
66,96000	0,14710	0,00948
66,97000	0,23031	0,00603
66,98000	0,30085	0,00552
66,99000	0,37727	0,00705
67,00000	0,46570	0,00774
67,01000	0,56842	0,00534
67,02000	0,66790	0,00493
67,03000	0,80194	0,00480
67,04000	0,87190	0,00670
67,05000	0,92907	0,00450
67,06000	0,95278	0,00532
67,07000	0,95678	0,00730
67,08000	0,93643	0,00842
67,09000	0,87532	0,00973
67,10000	0,81053	0,00965
67,11000	0,71241	0,00651
67,12000	0,59380	0,00557
67,13000	0,50789	0,00454
67,14000	0,41803	0,00342
67,15000	0,33870	0,00373
67,16000	0,26248	0,00561
67,17000	0,19717	0,00513
67,18000	0,13657	0,00451
67,19000	0,09194	0,00513
67,20000	0,06739	0,00405
67,21000	0,06396	0,01522
67,22000	0,04207	0,00461
67,23000	0,05014	0,01421
67,24000	0,04956	0,01383
67,25000	0,05292	0,01421
67,26000	0,06125	0,01346
67,27000	0,07676	0,01253
67,28000	0,09646	0,01273
67,29000	0,12430	0,01106
67,30000	0,16267	0,01122
67,31000	0,21739	0,00866
67,32000	0,29988	0,00580
67,33000	0,36855	0,00553
67,34000	0,45046	0,00663
67,35000	0,54497	0,00776
67,36000	0,61557	0,00643
67,37000	0,70840	0,00540
67,38000	0,80523	0,00627
67,39000	0,90808	0,00397
67,40000	0,93895	0,00357
67,41000	0,95969	0,00381
67,42000	0,96744	0,00289
67,43000	0,93811	0,00482
67,44000	0,89096	0,00994
67,45000	0,80162	0,01160
67,46000	0,70504	0,01151
67,47000	0,58017	0,00836
67,48000	0,48734	0,00496
67,49000	0,39051	0,00508
67,50000	0,30634	0,00985
67,51000	0,21810	0,01513
67,52000	0,15628	0,01318
67,53000	0,10234	0,01250
67,54000	0,05499	0,00913
67,55000	0,03367	0,00584
67,56000	0,01358	0,00717
67,57000	0,00389	0,00797
67,58000	0,00208	0,00540
67,59000	0,00679	0,00634
67,60000	0,00447	0,00554
67,61000	0,01642	0,00522
67,62000	0,04116	0,00785
67,63000	0,06616	0,00715
67,64000	0,09904	0,00910
67,65000	0,15860	0,01381
67,66000	0,22798	0,01430
67,67000	0,28651	0,01221
67,68000	0,37010	0,00919
67,69000	0,44568	0,00485
67,70000	0,50556	0,00433
67,71000	0,61525	0,00439
67,72000	0,71732	0,01137
67,73000	0,80323	0,01270
67,74000	0,88721	0,00924
67,75000	0,94205	0,00661
67,76000	0,96789	0,00452
67,77000	0,98088	0,00269
67,78000	0,96305	0,00403
67,79000	0,92145	0,00521
67,80000	0,84929	0,00527
67,81000	0,79555	0,00713
67,82000	0,67164	0,00587
67,83000	0,56777	0,00495
67,84000	0,49361	0,00539
67,85000	0,40033	0,00675
67,86000	0,32992	0,00963
67,87000	0,26248	0,01329
67,88000	0,20796	0,01355
67,89000	0,15524	0,01178
67,90000	0,11261	0,00840
67,91000	0,07766	0,00514
67,92000	0,05990	0,00361
67,93000	0,04756	0,00442
67,94000	0,04006	0,00679
67,95000	0,03561	0,01215
67,96000	0,03884	0,01461
67,97000	0,04943	0,01403
67,98000	0,06623	0,01424
67,99000	0,09278	0,01324
68,00000	0,13154	0,01356
68,01000	0,16984	0,01238
68,02000	0,21745	0,01471
68,03000	0,26584	0,01455
68,04000	0,32249	0,01411
68,05000	0,39206	0,01426
68,06000	0,48101	0,01373
68,07000	0,55110	0,01352
68,08000	0,63889	0,00739
68,09000	0,72500	0,00611
68,10000	0,80918	0,00525
68,11000	0,88036	0,00507
68,12000	0,90388	0,00543
68,13000	0,94173	0,00470
68,14000	0,91770	0,00535
68,15000	0,88954	0,00530
68,16000	0,83689	0,00418
68,17000	0,74115	0,00509
68,18000	0,65420	0,00547
68,19000	0,57410	0,00509
68,20000	0,47197	0,00511
68,21000	0,39310	0,00696
68,22000	0,33024	0,00802
68,23000	0,26416	0,00500
68,24000	0,22107	0,00574
68,25000	0,18554	0,00784
68,26000	0,15569	0,00793
68,27000	0,15130	0,01380
68,28000	0,13283	0,01413
68,29000	0,11551	0,01248
68,30000	0,10989	0,01051
68,31000	0,11190	0,00910
68,32000	0,11823	0,00524
68,33000	0,12501	0,00496
68,34000	0,14265	0,00383
68,35000	0,17165	0,00549
68,36000	0,21144	0,01099
68,37000	0,25143	0,01494
68,38000	0,29807	0,01397
68,39000	0,35233	0,01326
68,40000	0,39742	0,01244
68,41000	0,45912	0,00584
68,42000	0,53857	0,00953
68,43000	0,60789	0,00626
68,44000	0,68909	0,00564
68,45000	0,80013	0,00894
68,46000	0,85859	0,00479
68,47000	0,91395	0,00401
68,48000	0,94800	0,00441
68,49000	0,97209	0,00335
68,50000	0,95129	0,00284
68,51000	0,93411	0,00444
68,52000	0,89793	0,00413
68,53000	0,83166	0,00459
68,54000	0,74257	0,00537
68,55000	0,64962	0,00667
68,56000	0,56034	0,00785
68,57000	0,47455	0,00742
68,58000	0,41370	0,00684
68,59000	0,33709	0,00832
68,60000	0,28786	0,00996
68,61000	0,23593	0,01241
68,62000	0,19155	0,01437
68,63000	0,14626	0,01442
68,64000	0,11726	0,01356
68,65000	0,09362	0,01251
68,66000	0,09219	0,01411
68,67000	0,08231	0,01469
68,68000	0,07818	0,01392
68,69000	0,08108	0,01292
68,70000	0,08218	0,00420
68,71000	0,10247	0,00504
68,72000	0,12540	0,00928
68,73000	0,15395	0,01290
68,74000	0,20615	0,01439
68,75000	0,24826	0,01385
68,76000	0,29710	0,01289
68,77000	0,35369	0,01207
68,78000	0,43986	0,01063
68,79000	0,48295	0,00996
68,80000	0,56648	0,00861
68,81000	0,66086	0,00638
68,82000	0,72765	0,00641
68,83000	0,79794	0,00518
68,84000	0,86667	0,00579
68,85000	0,90304	0,00528
68,86000	0,92591	0,00450
68,87000	0,90265	0,00441
68,88000	0,88450	0,00412
68,89000	0,83133	0,00627
68,90000	0,76260	0,00768
68,91000	0,70091	0,00813
68,92000	0,60918	0,00519
68,93000	0,51073	0,00511
68,94000	0,44271	0,00619
68,95000	0,41848	0,00967
68,96000	0,32856	0,00822
68,97000	0,27727	0,00956
68,98000	0,24097	0,01376
68,99000	0,19704	0,01329
69,00000	0,16784	0,01108
69,01000	0,14775	0,00524
69,02000	0,13070	0,00443
69,03000	0,12294	0,00641
69,04000	0,12850	0,01334
69,05000	0,13425	0,01398
69,06000	0,14607	0,01263
69,07000	0,16610	0,01063
69,08000	0,18483	0,00913
69,09000	0,21377	0,01224
69,10000	0,25518	0,01075
69,11000	0,31002	0,00664
69,12000	0,35647	0,00661
69,13000	0,40401	0,00466
69,14000	0,46945	0,00567
69,15000	0,53185	0,00565
69,16000	0,59354	0,00818
69,17000	0,68508	0,00759
69,18000	0,75207	0,00714
69,19000	0,83056	0,00834
69,20000	0,88805	0,01071
69,21000	0,91441	0,00856
69,22000	0,92242	0,00734
69,23000	0,91111	0,00650
69,24000	0,89600	0,00382
69,25000	0,84574	0,00418
69,26000	0,76848	0,00438
69,27000	0,69238	0,01140
69,28000	0,59503	0,01404
69,29000	0,50866	0,01318
69,30000	0,46286	0,01478
69,31000	0,37339	0,01261
69,32000	0,31105	0,01036
69,33000	0,25692	0,00636
69,34000	0,21274	0,00789
69,35000	0,17365	0,00515
69,36000	0,14342	0,00582
69,37000	0,12740	0,00779
69,38000	0,11500	0,00883
69,39000	0,11842	0,01374
69,40000	0,12714	0,01325
69,41000	0,13845	0,01009
69,42000	0,15595	0,00476
69,43000	0,17824	0,00428
69,44000	0,20608	0,00600
69,45000	0,25143	0,01445
69,46000	0,30266	0,01397
69,47000	0,35770	0,01239
69,48000	0,40828	0,01043
69,49000	0,46525	0,00925
69,50000	0,51712	0,00588
69,51000	0,59193	0,01071
69,52000	0,65375	0,00609
69,53000	0,75549	0,00535
69,54000	0,81079	0,00641
69,55000	0,87274	0,00465
69,56000	0,91047	0,00462
69,57000	0,94845	0,00312
69,58000	0,94128	0,00364
69,59000	0,93682	0,00437
69,60000	0,88650	0,00537
69,61000	0,83657	0,00684
69,62000	0,76292	0,00902
69,63000	0,69477	0,01327
69,64000	0,59419	0,01359
69,65000	0,51738	0,01300
69,66000	0,45078	0,01120
69,67000	0,37585	0,00871
69,68000	0,31428	0,00504
69,69000	0,27882	0,00517
69,70000	0,23050	0,00392
69,71000	0,19032	0,00405
69,72000	0,16422	0,00597
69,73000	0,14781	0,00438
69,74000	0,13883	0,00422
69,75000	0,13935	0,00463
69,76000	0,13883	0,00493
69,77000	0,14891	0,00541
69,78000	0,15776	0,01361
69,79000	0,18489	0,01264
69,80000	0,21138	0,01215
69,81000	0,24264	0,01104
69,82000	0,28683	0,01089
69,83000	0,33192	0,00991
69,84000	0,39852	0,00696
69,85000	0,47862	0,00615
69,86000	0,52274	0,00596
69,87000	0,58980	0,00702
69,88000	0,69283	0,00801
69,89000	0,75814	0,00755
69,90000	0,80213	0,00710
69,91000	0,85840	0,00569
69,92000	0,90362	0,00425
69,93000	0,90226	0,00431
69,94000	0,89968	0,00582
69,95000	0,84839	0,00601
69,96000	0,79600	0,00583
69,97000	0,71144	0,00484
69,98000	0,67520	0,00610
69,99000	0,57688	0,00660
70,00000	0,50543	0,00826
70,01000	0,44109	0,00749
70,02000	0,38999	0,00818
70,03000	0,33877	0,00936
70,04000	0,29833	0,01064
70,05000	0,26558	0,01259
70,06000	0,24471	0,01407
70,07000	0,23031	0,01407
70,08000	0,22339	0,01410
70,09000	0,21164	0,01324
70,10000	0,21345	0,01258
70,11000	0,21900	0,01277
70,12000	0,24109	0,00482
70,13000	0,24704	0,01260
70,14000	0,26642	0,01244
70,15000	0,26945	0,00877
70,16000	0,30104	0,00858
70,17000	0,35098	0,00820
70,18000	0,39148	0,00782
70,19000	0,43806	0,00775
70,20000	0,51893	0,01243
70,21000	0,59044	0,01001
70,22000	0,63928	0,00881
70,23000	0,71680	0,00836
70,24000	0,80582	0,00606
70,25000	0,83560	0,00626
70,26000	0,88618	0,00568
70,27000	0,89994	0,00517
70,28000	0,90691	0,00424
70,29000	0,87539	0,00450
70,30000	0,85846	0,00414
70,31000	0,76751	0,00499
70,32000	0,68043	0,00491
70,33000	0,62139	0,00498
70,34000	0,54458	0,00518
70,35000	0,48463	0,00459
70,36000	0,41842	0,00525
70,37000	0,37972	0,00634
70,38000	0,31784	0,00660
70,39000	0,28560	0,00604
70,40000	0,25582	0,00473
70,41000	0,22255	0,00587
70,42000	0,21571	0,00556
70,43000	0,20880	0,00570
70,44000	0,20343	0,00476
70,45000	0,20544	0,00499
70,46000	0,21358	0,00643
70,47000	0,23069	0,00755
70,48000	0,24988	0,00740
70,49000	0,28334	0,00687
70,50000	0,31952	0,00788
70,51000	0,36454	0,01060
70,52000	0,40253	0,01390
70,53000	0,47359	0,01445
70,54000	0,53140	0,01130
70,55000	0,58528	0,00873
70,56000	0,64736	0,00472
70,57000	0,75246	0,00344
70,58000	0,80181	0,00566
70,59000	0,86583	0,00320
70,60000	0,90569	0,00271
70,61000	0,92474	0,00600
70,62000	0,91809	0,00763
70,63000	0,94348	0,00703
70,64000	0,92623	0,00391
70,65000	0,87190	0,00409
70,66000	0,84949	0,00623
70,67000	0,78153	0,00699
70,68000	0,68256	0,00561
70,69000	0,62688	0,00538
70,70000	0,54852	0,00588
70,71000	0,48424	0,00493
70,72000	0,43663	0,00750
70,73000	0,37985	0,00616
70,74000	0,33696	0,00797
70,75000	0,30705	0,01216
70,76000	0,26286	0,01424
70,77000	0,23761	0,01231
70,78000	0,21823	0,00927
70,79000	0,22566	0,01334
70,80000	0,21687	0,01074
70,81000	0,22766	0,00707
70,82000	0,23593	0,00499
70,83000	0,26383	0,00431
70,84000	0,27998	0,01411
70,85000	0,32268	0,01406
70,86000	0,34639	0,01348
70,87000	0,39891	0,01228
70,88000	0,46176	0,01267
70,89000	0,51299	0,01137
70,90000	0,55453	0,01047
70,91000	0,61938	0,01083
70,92000	0,68708	0,01013
70,93000	0,73611	0,00876
70,94000	0,82022	0,00715
70,95000	0,82843	0,00624
70,96000	0,86964	0,00481
70,97000	0,86014	0,00516
70,98000	0,87784	0,00497
70,99000	0,82907	0,00515
71,00000	0,78870	0,00602
71,01000	0,71279	0,01202
71,02000	0,65052	0,01304
71,03000	0,60084	0,01301
71,04000	0,54277	0,00768
71,05000	0,47617	0,00847
71,06000	0,42016	0,00858
71,07000	0,37604	0,00873
71,08000	0,33741	0,00977
71,09000	0,30124	0,00908
71,10000	0,27016	0,01003
71,11000	0,24206	0,01031
71,12000	0,21351	0,00996
71,13000	0,20427	0,00966
71,14000	0,21138	0,00859
71,15000	0,21719	0,00821
71,16000	0,22514	0,00580
71,17000	0,25395	0,00663
71,18000	0,27507	0,00590
71,19000	0,30841	0,00638
71,20000	0,32559	0,00793
71,21000	0,38257	0,00758
71,22000	0,41351	0,00592
71,23000	0,44813	0,00683
71,24000	0,50026	0,00787
71,25000	0,55240	0,00818
71,26000	0,63050	0,00510
71,27000	0,70336	0,00468
71,28000	0,73489	0,00444
71,29000	0,82707	0,00553
71,30000	0,84890	0,00624
71,31000	0,87571	0,00639
71,32000	0,89180	0,00671
71,33000	0,87093	0,00735
71,34000	0,85355	0,01006
71,35000	0,83560	0,01317
71,36000	0,80265	0,01240
71,37000	0,70601	0,01209
71,38000	0,64174	0,00950
71,39000	0,61357	0,00616
71,40000	0,53728	0,00480
71,41000	0,47682	0,00382
71,42000	0,43935	0,00417
71,43000	0,41609	0,00457
71,44000	0,36881	0,00502
71,45000	0,35117	0,00406
71,46000	0,33218	0,00401
71,47000	0,31273	0,00785
71,48000	0,32023	0,01272
71,49000	0,32100	0,01154
71,50000	0,32630	0,01059
71,51000	0,33586	0,01028
71,52000	0,36080	0,00811
71,53000	0,37242	0,00603
71,54000	0,39574	0,00602
71,55000	0,43974	0,00511
71,56000	0,48101	0,00653
71,57000	0,49652	0,00649
71,58000	0,54555	0,00764
71,59000	0,61131	0,00711
71,60000	0,63773	0,00786
71,61000	0,71499	0,00693
71,62000	0,76996	0,00733
71,63000	0,80446	0,00639
71,64000	0,83682	0,00628
71,65000	0,88340	0,00401
71,66000	0,89768	0,00438
71,67000	0,91337	0,00327
71,68000	0,89858	0,00346
71,69000	0,88572	0,00571
71,70000	0,80336	0,00613
71,71000	0,76577	0,00659
71,72000	0,71176	0,00710
71,73000	0,64652	0,00803
71,74000	0,60143	0,00737
71,75000	0,56099	0,00781
71,76000	0,50298	0,00789
71,77000	0,47165	0,00780
71,78000	0,44109	0,00729
71,79000	0,41034	0,00786
71,80000	0,38179	0,00714
71,81000	0,36822	0,00696
71,82000	0,35350	0,00761
71,83000	0,34943	0,00741
71,84000	0,34471	0,00787
71,85000	0,35873	0,00723
71,86000	0,37636	0,00609
71,87000	0,38353	0,00612
71,88000	0,41125	0,00604
71,89000	0,43431	0,00577
71,90000	0,46777	0,00538
71,91000	0,49516	0,00673
71,92000	0,53231	0,00633
71,93000	0,56415	0,00556
71,94000	0,62565	0,00611
71,95000	0,66551	0,00555
71,96000	0,69916	0,00532
71,97000	0,75885	0,00484
71,98000	0,78896	0,00574
71,99000	0,82313	0,00553
72,00000	0,87500	0,00405
72,01000	0,89063	0,00452
72,02000	0,88101	0,00463
72,03000	0,87074	0,00430
72,04000	0,86376	0,00506
72,05000	0,80368	0,00516
72,06000	0,76770	0,00535
72,07000	0,71628	0,00572
72,08000	0,64581	0,00761
72,09000	0,60750	0,00604
72,10000	0,56054	0,00562
72,11000	0,49955	0,00600
72,12000	0,46344	0,00665
72,13000	0,41726	0,00818
72,14000	0,40530	0,00884
72,15000	0,36538	0,00891
72,16000	0,34872	0,01201
72,17000	0,33121	0,01314
72,18000	0,32385	0,01380
72,19000	0,32895	0,01430
72,20000	0,32856	0,01345
72,21000	0,32630	0,01356
72,22000	0,34200	0,01310
72,23000	0,36822	0,01233
72,24000	0,38437	0,01171
72,25000	0,40375	0,01045
72,26000	0,44607	0,01105
72,27000	0,48709	0,00996
72,28000	0,50098	0,00960
72,29000	0,56893	0,01348
72,30000	0,58960	0,01425
72,31000	0,63780	0,01417
72,32000	0,68644	0,01416
72,33000	0,71816	0,01008
72,34000	0,76086	0,01119
72,35000	0,79477	0,01089
72,36000	0,84057	0,01103
72,37000	0,82597	0,01203
72,38000	0,81964	0,01218
72,39000	0,79264	0,01228
72,40000	0,75123	0,01350
72,41000	0,71557	0,01268
72,42000	0,66809	0,01357
72,43000	0,63385	0,01232
72,44000	0,58140	0,01054
72,45000	0,54690	0,01066
72,46000	0,50046	0,00902
72,47000	0,46700	0,01035
72,48000	0,44510	0,01054
72,49000	0,42346	0,01138
72,50000	0,40421	0,00755
72,51000	0,39180	0,00742
72,52000	0,37171	0,00727
72,53000	0,36583	0,00685
72,54000	0,36616	0,00751
72,55000	0,35240	0,01371
72,56000	0,35304	0,01442
72,56999	0,37036	0,01486
72,57899	0,39142	0,01425
72,58799	0,39794	0,01432
72,59699	0,41719	0,01419
72,60599	0,44574	0,01443
72,61499	0,48205	0,01460
72,62399	0,49904	0,01348
72,63299	0,53657	0,01410
72,64199	0,55311	0,01381
72,65099	0,58082	0,01390
72,65999	0,63754	0,01294
72,66899	0,67326	0,01229
72,67799	0,70763	0,01224
72,68699	0,73579	0,01098
72,69599	0,78527	0,01319
72,70499	0,78592	0,00729
72,71399	0,80633	0,01139
72,72299	0,82410	0,01081
72,73199	0,78728	0,00450
72,74099	0,77281	0,01059
72,74999	0,74735	0,00436
72,75899	0,71628	0,00475
72,76799	0,66208	0,00449
72,77699	0,63011	0,00507
72,78599	0,60614	0,00532
72,79499	0,53818	0,00533
72,80399	0,52074	0,00552
72,81299	0,49070	0,00534
72,82199	0,45640	0,00508
72,83099	0,42914	0,00516
72,83999	0,41344	0,00525
72,84899	0,38005	0,00494
72,85799	0,36751	0,00483
72,86699	0,34865	0,00375
72,87599	0,34768	0,00511
72,88499	0,34768	0,00607
72,89399	0,35111	0,00580
72,90299	0,34607	0,00559
72,91199	0,34943	0,00618
72,92099	0,37100	0,00518
72,92999	0,38644	0,00732
72,93899	0,38528	0,00739
72,94799	0,40530	0,00820
72,95699	0,43902	0,00573
72,96599	0,44859	0,00526
72,97499	0,46880	0,00411
72,98399	0,50698	0,00490
72,99299	0,54044	0,00437
73,00199	0,54103	0,00429
73,01099	0,59354	0,00409
73,01999	0,61292	0,00551
73,02899	0,64458	0,00563
73,03799	0,69729	0,00702
73,04699	0,73276	0,00842
73,05599	0,76732	0,00988
73,06499	0,78741	0,01029
73,07399	0,79929	0,01169
73,08299	0,81002	0,00857
73,09199	0,78166	0,01230
73,10099	0,76673	0,01362
73,10999	0,74690	0,01351
73,11899	0,72985	0,01237
73,12799	0,69975	0,00900
73,13699	0,67985	0,00742
73,14599	0,63230	0,00679
73,15499	0,61021	0,00679
73,16399	0,57584	0,00478
73,17299	0,54167	0,00546
73,18199	0,52249	0,00547
73,19099	0,50065	0,00616
73,19999	0,49057	0,00729
73,20899	0,47023	0,00566
73,21799	0,46545	0,00909
73,22699	0,43437	0,01136
73,23599	0,42733	0,01434
73,24499	0,42527	0,01433
73,25399	0,42061	0,00692
73,26299	0,41932	0,00379
73,27199	0,40207	0,01274
73,28099	0,41125	0,01477
73,28999	0,40614	0,01068
73,29899	0,41067	0,00807
73,30799	0,43760	0,01218
73,31699	0,43134	0,00874
73,32599	0,45511	0,00767
73,33499	0,45918	0,00629
73,34399	0,48599	0,00472
73,35299	0,50291	0,00537
73,36199	0,53986	0,00525
73,37099	0,54613	0,00687
73,37999	0,57882	0,00769
73,38899	0,61822	0,00619
73,39799	0,65679	0,00527
73,40699	0,67830	0,00889
73,41599	0,73192	0,01011
73,42499	0,75504	0,01339
73,43399	0,77235	0,01336
73,44299	0,79606	0,01258
73,45199	0,80879	0,00553
73,46099	0,78198	0,00416
73,46999	0,78592	0,01258
73,47899	0,77520	0,01213
73,48799	0,71428	0,01184
73,49699	0,72068	0,00696
73,50599	0,68024	0,00785
73,51499	0,65349	0,00723
73,52399	0,60672	0,00536
73,53299	0,59761	0,00544
73,54199	0,55840	0,00514
73,55099	0,53715	0,00682
73,55999	0,53379	0,00654
73,56899	0,50563	0,00650
73,57799	0,49678	0,01065
73,58699	0,48315	0,01189
73,59599	0,46861	0,01335
73,60499	0,45821	0,01400
73,61399	0,43767	0,00568
73,62299	0,43431	0,00437
73,63199	0,43967	0,00676
73,64099	0,43902	0,01122
73,64999	0,44426	0,01425
73,65899	0,41913	0,00752
73,66799	0,43011	0,00577
73,67699	0,43405	0,00570
73,68599	0,44620	0,00620
73,69499	0,47171	0,00567
73,70399	0,47927	0,00561
73,71299	0,49749	0,00650
73,72199	0,52184	0,00780
73,73099	0,52274	0,00619
73,73999	0,56687	0,00720
73,74899	0,59639	0,01060
73,75799	0,62591	0,01251
73,76699	0,67584	0,01326
73,77599	0,70885	0,01360
73,78499	0,74199	0,01184
73,79399	0,78663	0,00431
73,80299	0,80026	0,00425
73,81199	0,80653	0,00538
73,82099	0,80110	0,00985
73,82999	0,80498	0,01161
73,83899	0,78256	0,01314
73,84799	0,79167	0,00674
73,85699	0,76260	0,00518
73,86599	0,73237	0,00608
73,87499	0,70969	0,00427
73,88399	0,67836	0,00691
73,89299	0,65110	0,00424
73,90199	0,62572	0,00666
73,91099	0,60498	0,00730
73,91999	0,58179	0,00591
73,92899	0,55866	0,00900
73,93799	0,53825	0,01085
73,94699	0,51971	0,01305
73,95599	0,50931	0,01504
73,96499	0,49452	0,00608
73,97399	0,47791	0,00445
73,98299	0,47765	0,00545
73,99199	0,47068	0,01083
74,00099	0,46293	0,01435
74,00999	0,45421	0,01272
74,01899	0,44910	0,00852
74,02799	0,45194	0,00791
74,03699	0,44904	0,00577
74,04599	0,45983	0,00721
74,05499	0,47126	0,00711
74,06399	0,48573	0,00615
74,07299	0,49820	0,01119
74,08199	0,52436	0,01304
74,09099	0,54781	0,01211
74,09999	0,56577	0,01376
74,10899	0,59690	0,01478
74,11799	0,63637	0,00564
74,12699	0,66622	0,00474
74,13599	0,69891	0,00835
74,14499	0,74897	0,01199
74,15399	0,78314	0,01331
74,16299	0,81861	0,00840
74,17199	0,84219	0,00606
74,18099	0,85517	0,00649
74,18999	0,85091	0,00488
74,19899	0,84361	0,00546
74,20799	0,81803	0,00467
74,21699	0,79154	0,00693
74,22599	0,78489	0,00573
74,23499	0,74774	0,01177
74,24399	0,72759	0,01003
74,25299	0,69148	0,01410
74,26199	0,67145	0,01321
74,27099	0,61286	0,00401
74,27999	0,61215	0,00573
74,28899	0,58889	0,00406
74,29799	0,56738	0,00544
74,30699	0,54768	0,01081
74,31599	0,52895	0,01404
74,32499	0,50020	0,01214
74,33399	0,49038	0,00784
74,34299	0,47837	0,00687
74,35199	0,46797	0,00564
74,36099	0,46493	0,00553
74,36999	0,46138	0,00793
74,37899	0,45879	0,00661
74,38799	0,46260	0,00847
74,39699	0,47578	0,01265
74,40599	0,49103	0,01424
74,41499	0,50647	0,00957
74,42399	0,53786	0,00994
74,43299	0,56383	0,01425
74,44199	0,57184	0,00888
74,45099	0,61809	0,00673
74,45999	0,64516	0,00673
74,46899	0,68069	0,00641
74,47799	0,71428	0,00644
74,48699	0,74645	0,00611
74,49599	0,76221	0,00635
74,50499	0,79942	0,00571
74,51399	0,84651	0,01046
74,52299	0,85065	0,01186
74,53199	0,85730	0,00507
74,54099	0,86576	0,00431
74,54999	0,84580	0,01058
74,55899	0,81880	0,01146
74,56799	0,79135	0,00733
74,57699	0,76557	0,00484
74,58599	0,71880	0,00480
74,59499	0,70220	0,00714
74,60399	0,67772	0,00613
74,61299	0,63198	0,01423
74,62199	0,64077	0,00634
74,63099	0,61913	0,00509
74,63999	0,58851	0,01012
74,64899	0,58935	0,01275
74,65799	0,58928	0,01144
74,66699	0,56028	0,01377
74,67599	0,55853	0,00854
74,68499	0,56532	0,00684
74,69399	0,55911	0,00522
74,70299	0,55679	0,00627
74,71199	0,56583	0,00539
74,72099	0,56021	0,00730
74,72999	0,56706	0,00611
74,73899	0,57811	0,01122
74,74799	0,58050	0,01343
74,75699	0,58469	0,01487
74,76599	0,58114	0,00471
74,77499	0,59290	0,00544
74,78399	0,58857	0,00853
74,79299	0,61028	0,01316
74,80199	0,61538	0,01433
74,81099	0,58327	0,00697
74,81999	0,61913	0,00532
74,82899	0,65013	0,00533
74,83799	0,65181	0,00622
74,84699	0,71105	0,00504
74,85599	0,73359	0,00697
74,86499	0,73902	0,00665
74,87399	0,79535	0,00562
74,88299	0,80737	0,00982
74,89199	0,81157	0,01158
74,90099	0,82145	0,01241
74,90999	0,81854	0,01167
74,91899	0,80969	0,00460
74,92799	0,78185	0,00424
74,93699	0,77513	0,00785
74,94599	0,75711	0,01108
74,95499	0,70549	0,01393
74,96399	0,72326	0,00803
74,97299	0,71002	0,00609
74,98199	0,67378	0,00603
74,99099	0,67707	0,00492
74,99999	0,67856	0,00728
75,00899	0,65323	0,00621
75,01799	0,65246	0,00531
75,02699	0,64025	0,00623
75,03599	0,61228	0,01326
75,04499	0,61357	0,01403
75,05399	0,60356	0,01182
75,06299	0,60065	0,01476
75,07199	0,59290	0,00753
75,08099	0,58760	0,00416
75,08999	0,58482	0,00571
75,09899	0,58398	0,01143
75,10799	0,58095	0,01417
75,11699	0,57701	0,01105
75,12599	0,56590	0,00725
75,13499	0,57572	0,00585
75,14399	0,58489	0,00571
75,15299	0,56674	0,00538
75,16199	0,59929	0,00773
75,17099	0,62223	0,00495
75,17999	0,61622	0,01131
75,18899	0,66538	0,01298
75,19799	0,71790	0,00524
75,20699	0,73049	0,00550
75,21599	0,78844	0,01179
75,22499	0,83941	0,01199
75,23399	0,83947	0,01228
75,24299	0,88424	0,00566
75,25199	0,87888	0,00450
75,26099	0,87907	0,00451
75,26999	0,84929	0,00482
75,27899	0,87067	0,00599
75,28799	0,85310	0,00556
75,29699	0,82177	0,00713
75,30599	0,82668	0,00993
75,31499	0,79671	0,01222
75,32399	0,74057	0,01205
75,33299	0,73741	0,00443
75,34199	0,72546	0,00552
75,35099	0,67106	0,01082
75,35999	0,66028	0,01494
75,36899	0,64077	0,00909
75,37799	0,61150	0,00717
75,38699	0,59594	0,00565
75,39599	0,58948	0,00658
75,40499	0,56396	0,00773
75,41399	0,57597	0,00654
75,42299	0,56512	0,01038
75,43199	0,54542	0,01215
75,44099	0,56273	0,01033
75,44999	0,57468	0,01277
75,45899	0,57862	0,01355
75,46799	0,57345	0,01453
75,47699	0,60117	0,00876
75,48599	0,60485	0,00577
75,49499	0,58418	0,00538
75,50399	0,63250	0,01031
75,51299	0,64994	0,01273
75,52199	0,65756	0,01338
75,53099	0,70995	0,00790
75,53999	0,74232	0,00675
75,54899	0,75524	0,00547
75,55799	0,79257	0,00502
75,56699	0,85284	0,00482
75,57599	0,85116	0,00513
75,58499	0,88598	0,00355
75,59399	0,92578	0,00714
75,60299	0,90646	0,00883
75,61199	0,92029	0,00919
75,62099	0,89813	0,00920
75,62999	0,88140	0,00408
75,63899	0,84877	0,01163
75,64799	0,85762	0,00471
75,65699	0,83224	0,00350
75,66599	0,78430	0,00489
75,67499	0,80362	0,00916
75,68399	0,77875	0,01203
75,69299	0,73915	0,01372
75,70199	0,73004	0,01219
75,71099	0,69257	0,00834
75,71999	0,65446	0,00805
75,72899	0,65575	0,00597
75,73799	0,65097	0,00547
75,74699	0,63050	0,00551
75,75599	0,62714	0,00646
75,76499	0,61628	0,00717
75,77399	0,59923	0,00551
75,78299	0,61202	0,00806
75,79199	0,62455	0,01398
75,80099	0,62126	0,01307
75,80999	0,64290	0,00542
75,81899	0,62093	0,01254
75,82799	0,63670	0,00534
75,83699	0,62720	0,00521
75,84599	0,66247	0,00775
75,85499	0,66725	0,01287
75,86399	0,68508	0,01350
75,87299	0,70582	0,00999
75,88199	0,73611	0,00702
75,89099	0,73863	0,00706
75,89999	0,78405	0,00473
75,90899	0,83133	0,00512
75,91799	0,83043	0,00486
75,92699	0,89948	0,00503
75,93599	0,92513	0,00506
75,94499	0,91441	0,00320
75,95399	0,93631	0,00404
75,96299	0,94244	0,00806
75,97199	0,91202	0,00967
75,98099	0,91731	0,00751
75,98999	0,90840	0,00359
75,99899	0,88295	0,01053
76,00799	0,87326	0,00544
76,01699	0,85523	0,00622
76,02599	0,83114	0,00380
76,03499	0,81887	0,00517
76,04399	0,80485	0,00556
76,05299	0,79180	0,00866
76,06199	0,77003	0,01000
76,07099	0,76286	0,01213
76,07999	0,74962	0,01343
76,08899	0,71079	0,01415
76,09799	0,74328	0,01127
76,10699	0,71350	0,01085
76,11599	0,69975	0,00918
76,12499	0,68437	0,00750
76,13399	0,69774	0,00750
76,14299	0,68741	0,00703
76,15199	0,66686	0,00559
76,16099	0,67991	0,00590
76,16999	0,68075	0,00554
76,17899	0,66002	0,00547
76,18799	0,67591	0,00694
76,19699	0,67998	0,00744
76,20599	0,67817	0,00560
76,21499	0,68444	0,00827
76,22399	0,70407	0,00614
76,23299	0,68902	0,00604
76,24199	0,71906	0,00655
76,25099	0,75872	0,00707
76,25999	0,76286	0,00654
76,26899	0,81305	0,00565
76,27799	0,85039	0,00581
76,28699	0,85233	0,00634
76,29599	0,88908	0,00771
76,30499	0,89852	0,00871
76,31399	0,89793	0,01014
76,32299	0,89852	0,01072
76,33199	0,89490	0,01114
76,34099	0,89109	0,00385
76,34999	0,85375	0,00483
76,35899	0,86324	0,00828
76,36799	0,85691	0,01048
76,37699	0,82804	0,01171
76,38599	0,81467	0,00917
76,39499	0,80795	0,01059
76,40399	0,79115	0,01239
76,41299	0,79309	0,01172
76,42199	0,79529	0,00716
76,43099	0,77907	0,00638
76,43999	0,76144	0,00667
76,44899	0,78069	0,00605
76,45799	0,76951	0,00510
76,46699	0,74858	0,00541
76,47599	0,76867	0,00548
76,48499	0,76473	0,00554
76,49399	0,76176	0,00488
76,50299	0,75330	0,00608
76,51199	0,76053	0,00693
76,52099	0,74412	0,00722
76,52999	0,76176	0,00523
76,53899	0,76098	0,01174
76,54799	0,75168	0,01236
76,55699	0,75588	0,01290
76,56599	0,75853	0,01329
76,57499	0,75465	0,01253
76,58399	0,77623	0,01338
76,59299	0,77507	0,00432
76,60199	0,79910	0,01329
76,61099	0,81583	0,01128
76,61999	0,85375	0,00687
76,62899	0,88198	0,00369
76,63799	0,89690	0,00293
76,64699	0,92655	0,00279
76,65599	0,93786	0,00355
76,66499	0,92855	0,00402
76,67399	0,93295	0,00649
76,68299	0,92933	0,00791
76,69199	0,90310	0,00949
76,70099	0,90065	0,01059
76,70999	0,89697	0,00733
76,71899	0,85782	0,00665
76,72799	0,85549	0,00526
76,73699	0,84800	0,00466
76,74599	0,80795	0,00465
76,75499	0,82365	0,00683
76,76399	0,79154	0,00752
76,77299	0,77507	0,00589
76,78199	0,76738	0,00726
76,79099	0,76279	0,00782
76,79999	0,74438	0,00540
76,80899	0,73443	0,00619
76,81799	0,73179	0,00955
76,82699	0,71912	0,01115
76,83599	0,70142	0,01306
76,84499	0,71389	0,01343
76,85399	0,70517	0,01335
76,86299	0,68340	0,01463
76,87199	0,69277	0,01457
76,88099	0,70091	0,01393
76,88999	0,69064	0,01218
76,89899	0,70188	0,01033
76,90799	0,70537	0,00693
76,91699	0,69891	0,00588
76,92599	0,70808	0,00873
76,93499	0,72487	0,01026
76,94399	0,73192	0,01084
76,95299	0,75465	0,01281
76,96199	0,77933	0,01252
76,97099	0,78773	0,00917
76,97999	0,83269	0,01245
76,98899	0,86460	0,00992
76,99799	0,89044	0,00950
77,00699	0,89684	0,01019
77,01599	0,91337	0,00892
77,02499	0,92610	0,00862
77,03399	0,91667	0,00945
77,04299	0,91699	0,00927
77,05199	0,90976	0,00971
77,06099	0,89470	0,00946
77,06999	0,88592	0,00949
77,07899	0,87255	0,00909
77,08799	0,86402	0,00883
77,09699	0,84005	0,00801
77,10599	0,84154	0,00751
77,11499	0,83663	0,00615
77,12399	0,82920	0,00610
77,13299	0,81486	0,00526
77,14199	0,80685	0,00491
77,15099	0,77933	0,00505
77,15999	0,77145	0,00756
77,16899	0,77804	0,00689
77,17799	0,75737	0,00627
77,18699	0,75575	0,00592
77,19599	0,75937	0,00555
77,20499	0,74064	0,00601
77,21399	0,75369	0,00599
77,22299	0,74858	0,00548
77,23199	0,73689	0,00582
77,24099	0,74393	0,00664
77,24999	0,74077	0,00771
77,25899	0,73489	0,00733
77,26799	0,73140	0,00608
77,27699	0,73857	0,00593
77,28599	0,73469	0,00658
77,29499	0,74787	0,00992
77,30399	0,76053	0,01334
77,31299	0,77158	0,01329
77,32199	0,78657	0,01169
77,33099	0,80834	0,00426
77,33999	0,83301	0,01263
77,34899	0,84005	0,00460
77,35799	0,87377	0,00509
77,36699	0,89225	0,00303
77,37599	0,88786	0,00380
77,38499	0,90414	0,00332
77,39399	0,89845	0,00442
77,40299	0,88566	0,00506
77,41199	0,88560	0,00623
77,42099	0,86253	0,00846
77,42999	0,84774	0,00935
77,43899	0,82888	0,01074
77,44799	0,82184	0,01189
77,45699	0,80588	0,01274
77,46599	0,77617	0,01372
77,47499	0,77306	0,01122
77,48399	0,75452	0,00886
77,49299	0,72378	0,00454
77,50199	0,72423	0,00497
77,51099	0,71402	0,00609
77,51999	0,68973	0,00599
77,52899	0,69639	0,00575
77,53799	0,69354	0,00618
77,54699	0,66822	0,00696
77,55599	0,68146	0,00633
77,56499	0,66938	0,00720
77,57399	0,64658	0,00839
77,58299	0,65550	0,00635
77,59199	0,65175	0,00676
77,60099	0,63308	0,00930
77,60999	0,63353	0,01126
77,61899	0,62649	0,01213
77,62799	0,62513	0,01425
77,63699	0,62494	0,01466
77,64599	0,62481	0,01306
77,65499	0,63263	0,00636
77,66399	0,64277	0,00532
77,67299	0,64865	0,00527
77,68199	0,66919	0,00836
77,69099	0,70511	0,01275
77,69999	0,75937	0,00751
77,70899	0,77403	0,00655
77,71799	0,80110	0,00625
77,72699	0,82339	0,00479
77,73599	0,83101	0,00674
77,74499	0,84147	0,00595
77,75399	0,84890	0,00454
77,76299	0,83146	0,00455
77,77199	0,81971	0,00546
77,78099	0,82061	0,00481
77,78999	0,81163	0,00624
77,79899	0,79535	0,00744
77,80799	0,79264	0,00717
77,81699	0,78250	0,00511
77,82599	0,76286	0,00570
77,83499	0,76732	0,00910
77,84399	0,74858	0,01053
77,85299	0,73437	0,01195
77,86199	0,72823	0,01365
77,87099	0,72449	0,01344
77,87999	0,69781	0,00533
77,88899	0,68566	0,00871
77,89799	0,67985	0,01236
77,90699	0,66338	0,01442
77,91599	0,64387	0,01137
77,92499	0,64458	0,01457
77,93399	0,62643	0,01344
77,94299	0,60995	0,00915
77,95199	0,60950	0,00793
77,96099	0,58993	0,00675
77,96999	0,57765	0,00594
77,97899	0,58056	0,00547
77,98799	0,56389	0,00537
77,99699	0,55085	0,00742
78,00599	0,55065	0,00759
78,01499	0,55033	0,00560
78,02399	0,54619	0,00694
78,03299	0,55724	0,00964
78,04199	0,56887	0,01115
78,05099	0,58295	0,01244
78,05999	0,61086	0,01299
78,06899	0,65640	0,00504
78,07799	0,67352	0,00486
78,08699	0,69742	0,00550
78,09599	0,72281	0,00996
78,10499	0,71738	0,00530
78,11399	0,72074	0,00917
78,12299	0,74251	0,01049
78,13199	0,71221	0,01369
78,14099	0,70788	0,01249
78,14999	0,71745	0,00821
78,15899	0,69245	0,00688
78,16799	0,68205	0,00770
78,17699	0,68928	0,00727
78,18599	0,67836	0,00569
78,19499	0,67210	0,00634
78,20399	0,66848	0,00625
78,21299	0,64942	0,00537
78,22199	0,64316	0,00669
78,23099	0,64077	0,00722
78,23999	0,63385	0,00582
78,24899	0,62526	0,00576
78,25799	0,62294	0,00882
78,26699	0,62139	0,01373
78,27599	0,60033	0,01180
78,28499	0,58172	0,00530
78,29399	0,58179	0,00433
78,30299	0,56661	0,00542
78,31199	0,56099	0,00470
78,32099	0,55575	0,01246
78,32999	0,53812	0,01460
78,33899	0,53470	0,01136
78,34799	0,53534	0,01350
78,35699	0,51919	0,01462
78,36599	0,50621	0,01243
78,37499	0,49652	0,00899
78,38399	0,49600	0,00800
78,39299	0,48948	0,00809
78,40199	0,48986	0,00573
78,41099	0,50265	0,00491
78,41999	0,51364	0,00530
78,42899	0,52559	0,00548
78,43799	0,55640	0,00673
78,44699	0,57333	0,00769
78,45599	0,58237	0,00794
78,46499	0,60110	0,01096
78,47399	0,60898	0,01206
78,48299	0,59820	0,01345
78,49199	0,59199	0,01401
78,50099	0,59910	0,01203
78,50999	0,58218	0,01367
78,51899	0,57106	0,01443
78,52799	0,57158	0,00972
78,53699	0,55853	0,00540
78,54599	0,54355	0,00460
78,55499	0,55007	0,00550
78,56399	0,53579	0,00856
78,57299	0,52074	0,01129
78,58199	0,53127	0,01245
78,59099	0,52184	0,01377
78,59999	0,50550	0,01453
78,60899	0,51590	0,01390
78,61799	0,50756	0,01382
78,62699	0,49768	0,01216
78,63599	0,50337	0,01121
78,64499	0,50705	0,00779
78,65399	0,49452	0,00671
78,66299	0,50143	0,00615
78,67199	0,49238	0,00561
78,68099	0,48134	0,00556
78,68999	0,48276	0,00547
78,69899	0,47675	0,00805
78,70799	0,46667	0,00759
78,71699	0,47636	0,00618
78,72599	0,46906	0,00496
78,73499	0,46015	0,00448
78,74399	0,46260	0,00582
78,75299	0,46170	0,00572
78,76199	0,45653	0,00663
78,77099	0,46667	0,00505
78,77999	0,47430	0,00595
78,78899	0,47617	0,00684
78,79799	0,48973	0,00707
78,80699	0,51409	0,00627
78,81599	0,52513	0,00434
78,82499	0,53172	0,00582
78,83399	0,56674	0,00925
78,84299	0,57345	0,01327
78,85199	0,56422	0,01345
78,86099	0,57610	0,01432
78,86999	0,56648	0,01066
78,87899	0,54057	0,00569
78,88799	0,55614	0,01344
78,89699	0,54426	0,01449
78,90599	0,52274	0,01153
78,91499	0,51816	0,00809
78,92399	0,50873	0,00521
78,93299	0,48870	0,00489
78,94199	0,48928	0,00423
78,95099	0,48198	0,00465
78,95999	0,46758	0,00526
78,96899	0,46758	0,00535
78,97799	0,45976	0,00679
78,98699	0,44368	0,00910
78,99599	0,43282	0,01085
79,00499	0,43909	0,01232
79,01399	0,42488	0,01245
79,02299	0,42262	0,01392
79,03199	0,39432	0,00848
79,04099	0,38470	0,00711
79,04999	0,37462	0,00830
79,05899	0,37850	0,00791
79,06799	0,36861	0,00677
79,07699	0,35744	0,00797
79,08599	0,36164	0,00589
79,09499	0,36060	0,00752
79,10399	0,34239	0,00714
79,11299	0,35208	0,00540
79,12199	0,34406	0,00536
79,13099	0,33580	0,00511
79,13999	0,35046	0,00518
79,14899	0,34071	0,00565
79,15799	0,33528	0,00544
79,16699	0,35459	0,00642
79,17599	0,35304	0,00725
79,18499	0,36273	0,00853
79,19399	0,38573	0,00813
79,20299	0,39930	0,00654
79,21199	0,41034	0,00645
79,22099	0,42953	0,01153
79,22999	0,44051	0,01119
79,23899	0,45078	0,01183
79,24799	0,45136	0,01242
79,25699	0,46209	0,01241
79,26599	0,45240	0,01288
79,27499	0,43483	0,00650
79,28399	0,43935	0,00755
79,29299	0,42326	0,00652
79,30199	0,44200	0,01421
79,31099	0,41344	0,00621
79,31999	0,39555	0,00714
79,32899	0,38037	0,00517
79,33799	0,44671	0,00437
79,34699	0,38218	0,00557
79,35599	0,37184	0,00593
79,36499	0,37598	0,00640
79,37399	0,36822	0,00609
79,38299	0,36525	0,00753
79,39199	0,34658	0,00658
79,40099	0,34465	0,00690
79,40999	0,37204	0,01418
79,41899	0,35188	0,00716
79,42799	0,34956	0,01347
79,43699	0,38160	0,00625
79,44599	0,36080	0,00852
79,45499	0,36441	0,01087
79,46399	0,35175	0,01037
79,47299	0,36312	0,00747
79,48199	0,35169	0,01238
79,49099	0,33560	0,01166
79,49999	0,36202	0,00653
79,50899	0,33870	0,01271
79,51799	0,32501	0,00511
79,52699	0,31080	0,00512
79,53599	0,34083	0,01429
79,54499	0,39012	0,00706
79,55399	0,39238	0,00533
79,56299	0,40595	0,00742
79,57199	0,44374	0,00572
79,58099	0,42527	0,01434
79,58999	0,46474	0,00752
79,59899	0,50085	0,00561
79,60799	0,50653	0,00578
79,61699	0,50614	0,00714
79,62599	0,51906	0,01258
79,63499	0,50621	0,00603
79,64399	0,49174	0,00586
79,65299	0,48198	0,00558
79,66199	0,47262	0,00551
79,67099	0,47126	0,01347
79,67999	0,45098	0,01375
79,68899	0,45059	0,01375
79,69799	0,43851	0,01230
79,70699	0,42850	0,01178
79,71599	0,44129	0,00835
79,72499	0,40866	0,01090
79,73399	0,40744	0,00612
79,74299	0,41590	0,01352
79,75199	0,41654	0,01032
79,76099	0,39956	0,01269
79,76999	0,38295	0,00691
79,77899	0,39749	0,00840
79,78799	0,38166	0,01308
79,79699	0,37578	0,00654
79,80599	0,39193	0,01177
79,81499	0,37888	0,00522
79,82399	0,38069	0,01119
79,83299	0,39154	0,00628
79,84199	0,38961	0,01048
79,85099	0,37242	0,01353
79,85999	0,39006	0,01003
79,86899	0,37120	0,00620
79,87799	0,37443	0,00656
79,88699	0,38043	0,00709
79,89599	0,37772	0,00801
79,90499	0,37546	0,00773
79,91399	0,38431	0,00576
79,92299	0,39419	0,00760
79,93199	0,40944	0,00738
79,94099	0,42029	0,00787
79,94999	0,45078	0,00743
79,95899	0,46396	0,00747
79,96799	0,46680	0,00753
79,97699	0,49768	0,00757
79,98599	0,50104	0,00708
79,99499	0,49852	0,00955
80,00399	0,51590	0,01059
80,01299	0,49296	0,01051
80,02199	0,47507	0,01338
80,03099	0,48205	0,01339
80,03999	0,45808	0,01352
80,04899	0,42908	0,00573
80,05799	0,44374	0,00884
80,06699	0,43315	0,01358
80,07599	0,41499	0,01380
80,08499	0,40027	0,00464
80,09399	0,39045	0,00567
80,10299	0,37468	0,00601
80,11199	0,37236	0,00508
80,12099	0,30072	0,01051
80,12999	0,35169	0,00416
80,13899	0,35304	0,00384
80,14799	0,34626	0,00512
80,15699	0,32811	0,01158
80,16599	0,33218	0,01097
80,17499	0,32733	0,01051
80,18399	0,30085	0,01484
80,19299	0,30317	0,00979
80,20199	0,32501	0,01022
80,21099	0,30311	0,01474
80,21999	0,31015	0,00448
80,22899	0,32675	0,00557
80,23799	0,29801	0,01281
80,24699	0,29768	0,01228
80,25599	0,31635	0,01253
80,26499	0,31803	0,01263
80,27399	0,29910	0,01352
80,28299	0,32404	0,01488
80,29199	0,33780	0,01394
80,30099	0,33541	0,01481
80,30999	0,37313	0,01043
80,31899	0,37591	0,01508
80,32799	0,37113	0,01501
80,33699	0,41306	0,01539
80,34599	0,42882	0,01422
80,35499	0,42384	0,01438
80,36399	0,45821	0,00477
80,37299	0,41105	0,00797
80,38199	0,39316	0,00874
80,39099	0,41900	0,01440
80,39999	0,38651	0,00979
80,40899	0,35847	0,01042
80,41799	0,38980	0,01223
80,42699	0,37966	0,01086
80,43599	0,35673	0,01076
80,44499	0,35660	0,01054
80,45399	0,35065	0,00880
80,46299	0,32792	0,00795
80,47199	0,32921	0,00713
80,48099	0,33095	0,00458
80,48999	0,30841	0,00557
80,49899	0,31500	0,00630
80,50799	0,31241	0,00556
80,51699	0,30001	0,00601
80,52599	0,30111	0,00610
80,53499	0,30040	0,00496
80,54399	0,29368	0,00620
80,55299	0,28140	0,00542
80,56199	0,28289	0,01226
80,57099	0,28257	0,01224
80,57999	0,28618	0,00577
80,58899	0,29226	0,01236
80,59799	0,29962	0,00540
80,60699	0,29329	0,00499
80,61599	0,29775	0,00455
80,62499	0,31183	0,00419
80,63399	0,31060	0,00522
80,64299	0,32262	0,00487
80,65199	0,33489	0,00532
80,66099	0,32120	0,00551
80,66999	0,36396	0,00584
80,67899	0,38269	0,00593
80,68799	0,37436	0,01108
80,69699	0,41874	0,01245
80,70599	0,44981	0,01394
80,71499	0,43922	0,01408
80,72399	0,45963	0,01321
80,73299	0,47313	0,01339
80,74199	0,45266	0,01374
80,75099	0,44904	0,00881
80,75999	0,43289	0,01358
80,76899	0,40601	0,01216
80,77799	0,39794	0,01427
80,78699	0,39025	0,01103
80,79599	0,36797	0,01361
80,80499	0,35279	0,01367
80,81399	0,34549	0,00530
80,82299	0,33115	0,00714
80,83199	0,32023	0,00813
80,84099	0,31144	0,00762
80,84999	0,29613	0,00719
80,85899	0,28334	0,00562
80,86799	0,27882	0,00595
80,87699	0,27016	0,00595
80,88599	0,26222	0,00665
80,89499	0,26461	0,00475
80,90399	0,25382	0,00560
80,91299	0,25602	0,00657
80,92199	0,25382	0,00699
80,93099	0,25130	0,00640
80,93999	0,24122	0,00650
80,94899	0,24006	0,00550
80,95799	0,25640	0,00719
80,96699	0,26034	0,00707
80,97599	0,25841	0,00621
80,98499	0,26299	0,00544
80,99399	0,25492	0,00930
81,00299	0,24833	0,01308
81,01199	0,28018	0,00768
81,02099	0,26416	0,01448
81,02999	0,25892	0,01250
81,03899	0,29549	0,01337
81,04799	0,32320	0,01486
81,05699	0,30925	0,00806
81,06599	0,34633	0,00571
81,07499	0,36939	0,00544
81,08399	0,37307	0,00544
81,09299	0,38114	0,00541
81,10199	0,39620	0,00910
81,11099	0,37223	0,00571
81,11999	0,36493	0,00498
81,12899	0,34710	0,01433
81,13799	0,33864	0,00890
81,14699	0,32378	0,00585
81,15599	0,31261	0,00578
81,16499	0,28612	0,00471
81,17399	0,27598	0,00458
81,18299	0,26170	0,00546
81,19199	0,23748	0,01301
81,20099	0,21564	0,00718
81,20999	0,20253	0,01148
81,21899	0,19310	0,01001
81,22799	0,19329	0,00613
81,23699	0,18528	0,00599
81,24599	0,18063	0,00599
81,25499	0,18554	0,00528
81,26399	0,24607	0,00748
81,27299	0,23941	0,00650
81,28199	0,17462	0,00603
81,29099	0,18651	0,00544
81,29999	0,24077	0,00606
81,30899	0,19529	0,00611
81,31799	0,21506	0,01065
81,32699	0,25466	0,00621
81,33599	0,21991	0,01027
81,34499	0,26855	0,00519
81,35399	0,27746	0,00705
81,36299	0,27940	0,00833
81,37199	0,23283	0,01371
81,38099	0,27617	0,01394
81,38999	0,27960	0,01347
81,39899	0,30382	0,00952
81,40799	0,31196	0,00923
81,41699	0,31105	0,01133
81,42599	0,34419	0,01378
81,43499	0,34826	0,00928
81,44399	0,37301	0,00746
81,45299	0,39051	0,00535
81,46199	0,41474	0,01228
81,47099	0,41461	0,00434
81,47999	0,41092	0,00549
81,48899	0,39839	0,00609
81,49799	0,38063	0,01128
81,50699	0,36332	0,01272
81,51599	0,34671	0,01370
81,52499	0,34045	0,01054
81,53399	0,31319	0,00591
81,54299	0,29478	0,01308
81,55199	0,28870	0,01306
81,56099	0,26112	0,01054
81,56999	0,25421	0,00781
81,57899	0,30485	0,00615
81,58799	0,23302	0,00662
81,59699	0,22785	0,00722
81,60599	0,22462	0,00547
81,61499	0,22404	0,00603
81,62399	0,22947	0,00730
81,63299	0,23128	0,00887
81,64199	0,23799	0,01243
81,65099	0,22973	0,00845
81,65999	0,25305	0,01268
81,66899	0,26222	0,01109
81,67799	0,25253	0,01466
81,68699	0,26390	0,01344
81,69599	0,27475	0,01238
81,70499	0,28418	0,00987
81,71399	0,29710	0,00621
81,72299	0,30782	0,00530
81,73199	0,32746	0,01359
81,74099	0,32598	0,00467
81,74999	0,33631	0,00550
81,75899	0,28347	0,01421
81,76799	0,36855	0,01454
81,77699	0,38140	0,01385
81,78599	0,32288	0,00750
81,79499	0,42675	0,01212
81,80399	0,44697	0,00548
81,81299	0,46680	0,00555
81,82199	0,48883	0,00874
81,83099	0,51816	0,00605
81,83999	0,53231	0,00510
81,84899	0,53289	0,00590
81,85799	0,52229	0,00748
81,86699	0,50692	0,00785
81,87599	0,48308	0,00619
81,88499	0,46267	0,00595
81,89399	0,43974	0,00559
81,90299	0,41209	0,00597
81,91199	0,39988	0,00634
81,92099	0,37940	0,00555
81,92999	0,35711	0,00661
81,93899	0,33832	0,00604
81,94799	0,32275	0,00540
81,95699	0,31073	0,00610
81,96599	0,28476	0,00875
81,97499	0,27023	0,01300
81,98399	0,25214	0,01499
81,99299	0,24090	0,01333
82,00199	0,23438	0,01220
82,01099	0,22217	0,01047
82,01999	0,21138	0,00844
82,02899	0,21545	0,00570
82,03799	0,21086	0,00405
82,04699	0,21241	0,00547
82,05599	0,22184	0,00565
82,06499	0,21551	0,01230
82,07399	0,21797	0,01404
82,08299	0,23179	0,01421
82,09199	0,23890	0,00511
82,10099	0,24297	0,01714
82,10999	0,25724	0,01865
82,11899	0,26829	0,01671
82,12799	0,27714	0,01415
82,13699	0,29516	0,01253
82,14599	0,31157	0,00465
82,15499	0,32992	0,00506
82,16399	0,35782	0,00595
82,17299	0,38244	0,00642
82,18199	0,40750	0,00673
82,19099	0,44704	0,00616
82,19999	0,47669	0,00600
82,20899	0,50827	0,00575
82,21799	0,53302	0,00729
82,22699	0,53877	0,00852
82,23599	0,53295	0,00791
82,24499	0,51842	0,00696
82,25399	0,49871	0,00804
82,26299	0,46428	0,00799
82,27199	0,44503	0,00830
82,28099	0,41512	0,00992
82,28999	0,38437	0,00796
82,29899	0,35711	0,00785
82,30799	0,33786	0,00724
82,31699	0,30970	0,00765
82,32599	0,29478	0,00883
82,33499	0,27262	0,00874
82,34399	0,26861	0,01288
82,35299	0,23799	0,01025
82,36199	0,25091	0,01143
82,37099	0,23257	0,01108
82,37999	0,22805	0,00998
82,38899	0,22863	0,00922
82,39799	0,21713	0,00836
82,40699	0,21965	0,00696
82,41599	0,22876	0,00522
82,42499	0,22908	0,00468
82,43399	0,23121	0,00467
82,44299	0,24988	0,00480
82,45199	0,24839	0,00541
82,46099	0,26190	0,00505
82,46999	0,28780	0,00587
82,47899	0,29691	0,00595
82,48799	0,31319	0,00530
82,49699	0,34219	0,00620
82,50599	0,35027	0,00517
82,51499	0,35996	0,00410
82,52399	0,38399	0,00467
82,53299	0,40104	0,00480
82,54199	0,42598	0,01394
82,55099	0,45356	0,01434
82,55999	0,48076	0,01397
82,56899	0,50207	0,01376
82,57799	0,53896	0,01227
82,58699	0,58592	0,01264
82,59599	0,60776	0,01321
82,60499	0,61822	0,01162
82,61399	0,62513	0,01115
82,62299	0,60724	0,01074
82,63199	0,58063	0,01144
82,64099	0,56538	0,01088
82,64999	0,52998	0,01085
82,65899	0,49232	0,01120
82,66799	0,46868	0,01100
82,67699	0,43353	0,01395
82,68599	0,40795	0,00928
82,69499	0,37934	0,01374
82,70399	0,35899	0,01348
82,71299	0,33392	0,00765
82,72199	0,31945	0,01305
82,73099	0,29762	0,00730
82,73999	0,27656	0,00639
82,74899	0,26435	0,00634
82,75799	0,25363	0,00598
82,76699	0,24051	0,00627
82,77599	0,23412	0,00713
82,78499	0,23483	0,00622
82,79399	0,23005	0,00494
82,80299	0,23405	0,00479
82,81199	0,24381	0,00630
82,82099	0,24639	0,00652
82,82999	0,25757	0,00591
82,83899	0,27068	0,00708
82,84799	0,27727	0,00761
82,85699	0,28806	0,00733
82,86599	0,30950	0,00625
82,87499	0,32565	0,00564
82,88399	0,33935	0,00526
82,89299	0,36616	0,00556
82,90199	0,38295	0,00618
82,91099	0,39393	0,00564
82,91999	0,42236	0,00527
82,92899	0,44445	0,00485
82,93799	0,47339	0,00478
82,94699	0,50440	0,00502
82,95599	0,53541	0,00554
82,96499	0,56958	0,00572
82,97399	0,61079	0,00537
82,98299	0,64522	0,00669
82,99199	0,64988	0,00654
83,00099	0,65227	0,00673
83,00999	0,63308	0,00771
83,01899	0,59994	0,00725
83,02799	0,56389	0,00722
83,03699	0,52985	0,00778
83,04599	0,49064	0,00684
83,05499	0,45789	0,00658
83,06399	0,41958	0,00622
83,07299	0,39161	0,01001
83,08199	0,35143	0,00576
83,09099	0,33005	0,00643
83,09999	0,30208	0,00596
83,10899	0,28367	0,00617
83,11799	0,26700	0,00640
83,12699	0,24872	0,00611
83,13599	0,24006	0,00526
83,14499	0,22921	0,00628
83,15399	0,21874	0,00615
83,16299	0,21558	0,00584
83,17199	0,21558	0,00639
83,18099	0,21325	0,00696
83,18999	0,21312	0,00705
83,19899	0,22204	0,00742
83,20799	0,22113	0,00714
83,21699	0,22688	0,00772
83,22599	0,24264	0,00712
83,23499	0,25111	0,00628
83,24399	0,26144	0,00567
83,25299	0,29155	0,00803
83,26199	0,30266	0,00758
83,27099	0,30563	0,00613
83,27999	0,33780	0,00626
83,28899	0,34633	0,00684
83,29799	0,37669	0,00494
83,30699	0,39775	0,00619
83,31599	0,41977	0,00733
83,32499	0,43806	0,00770
83,33399	0,46293	0,00738
83,34299	0,50530	0,00706
83,35199	0,53476	0,00826
83,36099	0,57449	0,00989
83,36999	0,61118	0,01286
83,37899	0,62455	0,01416
83,38799	0,62817	0,01306
83,39699	0,62488	0,01252
83,40599	0,59755	0,01199
83,41499	0,56079	0,01042
83,42399	0,52740	0,01009
83,43299	0,47837	0,00822
83,44199	0,44309	0,01400
83,45099	0,40653	0,01250
83,45999	0,36428	0,01208
83,46899	0,32204	0,01130
83,47799	0,29516	0,00916
83,48699	0,25608	0,00808
83,49599	0,22165	0,00577
83,50499	0,19349	0,00509
83,51399	0,15175	0,01266
83,52299	0,12779	0,01530
83,53199	0,11377	0,01426
83,54099	0,10130	0,01468
83,54999	0,08593	0,01423
83,55899	0,07856	0,01383
83,56799	0,07566	0,01330
83,57699	0,06468	0,01369
83,58599	0,06674	0,01386
83,59499	0,07385	0,01327
83,60399	0,07398	0,01257
83,61299	0,07986	0,01323
83,62199	0,09672	0,01346
83,63099	0,11061	0,00924
83,63999	0,12895	0,00637
83,64899	0,15479	0,00591
83,65799	0,17662	0,00542
83,66699	0,19704	0,00434
83,67599	0,22985	0,00430
83,68499	0,24536	0,01431
83,69399	0,27637	0,01437
83,70299	0,30608	0,01392
83,71199	0,32914	0,01256
83,72099	0,35537	0,01210
83,72999	0,38715	0,01312
83,73899	0,41945	0,01346
83,74799	0,45737	0,01464
83,75699	0,49678	0,01441
83,76599	0,54716	0,01437
83,77499	0,58340	0,01377
83,78399	0,61228	0,01408
83,79299	0,62048	0,01362
83,80199	0,59858	0,01289
83,81099	0,57358	0,01079
83,81999	0,54044	0,01152
83,82899	0,50395	0,01219
83,83799	0,44542	0,01072
83,84699	0,40634	0,01030
83,85599	0,35841	0,00642
83,86499	0,31435	0,00491
83,87399	0,29581	0,00596
83,88299	0,24659	0,00723
83,89199	0,21106	0,00549
83,90099	0,18496	0,00616
83,90999	0,15712	0,00740
83,91899	0,13321	0,00786
83,92799	0,11842	0,01077
83,93699	0,11209	0,01441
83,94599	0,10208	0,01298
83,95499	0,09743	0,01065
83,96399	0,09407	0,00709
83,97299	0,08935	0,00529
83,98199	0,08871	0,00500
83,99099	0,09265	0,00680
83,99999	0,10137	0,01352
84,00899	0,11274	0,01460
84,01799	0,11222	0,01052
84,02699	0,13005	0,01379
84,03599	0,14743	0,01298
84,04499	0,16616	0,01222
84,05399	0,18619	0,01149
84,06299	0,21248	0,01085
84,07199	0,22973	0,00713
84,08099	0,25763	0,00731
84,08999	0,28586	0,00640
84,09899	0,30841	0,00559
84,10799	0,32559	0,00646
84,11699	0,35227	0,00588
84,12599	0,38741	0,00559
84,13499	0,42081	0,00711
84,14399	0,44981	0,00808
84,15299	0,49245	0,00705
84,16199	0,52513	0,00983
84,17099	0,56409	0,01331
84,17999	0,60298	0,01277
84,18899	0,64122	0,01129
84,19799	0,65168	0,00530
84,20699	0,65911	0,01183
84,21599	0,63308	0,00774
84,22499	0,59180	0,00550
84,23399	0,55169	0,00533
84,24299	0,49613	0,00574
84,25199	0,44032	0,01202
84,26099	0,37546	0,01385
84,26999	0,33127	0,00983
84,27899	0,28270	0,00634
84,28799	0,24730	0,00563
84,29699	0,21119	0,00767
84,30599	0,18483	0,00797
84,31499	0,15796	0,00674
84,32399	0,13716	0,00578
84,33299	0,11106	0,00592
84,34199	0,09207	0,00529
84,35099	0,07320	0,00577
84,35999	0,06009	0,00652
84,36899	0,05499	0,00785
84,37799	0,04723	0,00706
84,38699	0,04484	0,00782
84,39599	0,04400	0,00873
84,40499	0,03767	0,00805
84,41399	0,04200	0,00690
84,42299	0,05059	0,00755
84,43199	0,05938	0,00844
84,44099	0,07139	0,00887
84,44999	0,11106	0,01276
84,45899	0,11474	0,01331
84,46799	0,14943	0,00929
84,47699	0,17294	0,00809
84,48599	0,19497	0,00561
84,49499	0,22107	0,00581
84,50399	0,24633	0,00488
84,51299	0,27159	0,00420
84,52199	0,30440	0,00467
84,53099	0,33263	0,00534
84,53999	0,36422	0,00586
84,54899	0,40847	0,01081
84,55799	0,44865	0,01437
84,56699	0,49523	0,01441
84,57599	0,54807	0,01334
84,58499	0,59955	0,01286
84,59399	0,64245	0,01400
84,60299	0,68922	0,01382
84,61199	0,70375	0,01270
84,62099	0,69251	0,01241
84,62999	0,67177	0,01259
84,63899	0,62171	0,00501
84,64799	0,57113	0,00601
84,65699	0,51454	0,00719
84,66599	0,44768	0,00710
84,67499	0,40201	0,00622
84,68399	0,35007	0,00546
84,69299	0,29445	0,00580
84,70199	0,25001	0,00567
84,71099	0,19549	0,00564
84,71999	0,15789	0,00725
84,72899	0,11952	0,00776
84,73799	0,09000	0,00816
84,74699	0,06145	0,01054
84,75599	0,02992	0,01472
84,76499	0,00608	0,01353
84,77399	0,00735	0,01127
84,78299	0,00089	0,01389
84,79199	0,00490	0,01245
84,80099	0,00948	0,00980
84,80999	0,01510	0,00498
84,81899	0,01478	0,00423
84,82799	0,02893	0,01393
84,83699	0,02925	0,01346
84,84599	0,01853	0,01053
84,85499	0,01459	0,01447
84,86399	0,01052	0,01062
84,87299	0,00725	0,01080
84,88199	0,02695	0,00851
84,89099	0,05350	0,00613
84,89999	0,08716	0,00513
84,90899	0,11887	0,00689
84,91799	0,15796	0,00811
84,92699	0,21015	0,00624
84,93599	0,26532	0,00550
84,94499	0,30627	0,00565
84,95399	0,35285	0,00541
84,96299	0,39587	0,00539
84,97199	0,43670	0,00534
84,98099	0,48340	0,00552
84,98999	0,53360	0,00475
84,99899	0,59109	0,00560
85,00799	0,62901	0,00558
85,01699	0,64858	0,00599
85,02599	0,64186	0,00583
85,03499	0,60168	0,00717
85,04399	0,55491	0,00662
85,05299	0,50808	0,00719
85,06199	0,44406	0,00663
85,07099	0,38353	0,00633
85,07999	0,32552	0,00726
85,08899	0,26836	0,00717
85,09799	0,19710	0,00708
85,10699	0,13929	0,00675
85,11599	0,09271	0,00652
85,12499	0,04904	0,00602
85,13399	0,02585	0,00547
85,14299	0,00227	0,00613
85,15199	0,01562	0,00568
85,16099	0,01614	0,00571
85,16999	0,02247	0,00475
85,17899	0,02221	0,00504
85,18799	0,02260	0,00558
85,19699	0,02337	0,00604
85,20599	0,02408	0,00625
85,21499	0,02370	0,00593
85,22399	0,01653	0,00576
85,23299	0,01691	0,00622
85,24199	0,01808	0,00608
85,25099	0,01969	0,00626
85,25999	0,02131	0,00551
85,26899	0,02059	0,00577
85,27799	0,00819	0,00561
85,28699	0,01099	0,00540
85,29599	0,03806	0,00575
85,30499	0,07307	0,00623
85,31399	0,10847	0,00630
85,32299	0,16280	0,00602
85,33199	0,21803	0,00552
85,34099	0,26616	0,00550
85,34999	0,31189	0,00612
85,35899	0,35970	0,00608
85,36799	0,40072	0,00544
85,37699	0,46441	0,00641
85,38599	0,50911	0,00767
85,39499	0,58037	0,00822
85,40399	0,63986	0,01145
85,41299	0,70446	0,00943
85,42199	0,69077	0,01269
85,43099	0,68896	0,01097
85,43999	0,64387	0,00427
85,44899	0,58069	0,00669
85,45799	0,53999	0,01325
85,46699	0,46971	0,01319
85,47599	0,40640	0,01337
85,48499	0,34109	0,01327
85,49399	0,29755	0,01189
85,50299	0,24232	0,01109
85,51199	0,18806	0,01097
85,52099	0,13696	0,00908
85,52999	0,08935	0,00667
85,53899	0,06810	0,00632
85,54799	0,04840	0,00543
85,55699	0,04911	0,01089
85,56599	0,04652	0,00853
85,57499	0,04446	0,00542
85,58399	0,04523	0,00581
85,59299	0,03916	0,00695
85,60199	0,04530	0,00670
85,61099	0,03735	0,00584
85,61999	0,03748	0,00544
85,62899	0,03574	0,00506
85,63799	0,03625	0,00564
85,64699	0,03315	0,00623
85,65599	0,03225	0,00688
85,66499	0,00789	0,01394
85,67399	0,03076	0,00607
85,68299	0,04471	0,00602
85,69199	0,06875	0,00559
85,70099	0,10298	0,00588
85,70999	0,14362	0,00608
85,71899	0,18321	0,00579
85,72799	0,22423	0,00547
85,73699	0,28186	0,00671
85,74599	0,32630	0,00700
85,75499	0,38037	0,00725
85,76399	0,44994	0,00757
85,77299	0,49432	0,00732
85,78199	0,54826	0,00755
85,79099	0,63482	0,00707
85,79999	0,67791	0,00603
85,80899	0,73818	0,00644
85,81799	0,77442	0,00519
85,82699	0,75511	0,00518
85,83599	0,73967	0,00515
85,84499	0,69135	0,00654
85,85399	0,60466	0,00752
85,86299	0,52191	0,00682
85,87199	0,44187	0,01401
85,88099	0,36738	0,00764
85,88999	0,30085	0,01048
85,89899	0,23593	0,01306
85,90799	0,15860	0,01469
85,91699	0,07269	0,00544
85,92599	0,03373	0,01246
85,93499	0,00447	0,01412
85,94399	0,00302	0,01317
85,95299	0,00645	0,01160
85,96199	0,01013	0,00996
85,97099	0,01407	0,00740
85,97999	0,01536	0,00564
85,98899	0,02544	0,01285
85,99799	0,02815	0,01453
86,00699	0,02880	0,01391
86,01599	0,02925	0,01380
86,02499	0,02906	0,01351
86,03399	0,03054	0,01263
86,04299	0,03074	0,01332
86,05199	0,03177	0,01171
86,06099	0,03242	0,01224
86,06999	0,03235	0,01241
86,07899	0,03242	0,01296
86,08799	0,03222	0,01188
86,09699	0,03216	0,01165
86,10599	0,03255	0,01222
86,11499	0,02757	0,01219
86,12399	0,01332	0,01220
86,13299	0,07378	0,01457
86,14199	0,13037	0,01386
86,15099	0,20808	0,01418
86,15999	0,28961	0,01402
86,16899	0,36189	0,01335
86,17799	0,42546	0,00906
86,18699	0,49523	0,00807
86,19599	0,55595	0,01202
86,20499	0,66564	0,00653
86,21399	0,73088	0,00596
86,22299	0,77319	0,00474
86,23199	0,80717	0,00605
86,24099	0,79374	0,00686
86,24999	0,71577	0,00760
86,25899	0,66247	0,00756
86,26799	0,57604	0,00749
86,27699	0,46751	0,00678
86,28599	0,37940	0,00681
86,29499	0,27824	0,00659
86,30399	0,16048	0,00587
86,31299	0,09730	0,00601
86,32199	0,02656	0,00753
86,33099	0,02486	0,00751
86,33999	0,02415	0,00648
86,34899	0,02215	0,00598
86,35799	0,02098	0,00639
86,36699	0,01310	0,00723
86,37599	0,01717	0,00518
86,38499	0,01633	0,00530
86,39399	0,00393	0,00816
86,40299	0,00218	0,00860
86,41199	0,00098	0,01137
86,42099	0,00718	0,01330
86,42999	0,01325	0,01462
86,43899	0,01636	0,01352
86,44799	0,01862	0,01252
86,45699	0,02139	0,01175
86,46599	0,02469	0,00983
86,47499	0,02792	0,00622
86,48399	0,02947	0,00534
86,49299	0,02934	0,00411
86,50199	0,02966	0,00451
86,51099	0,02928	0,00543
86,51999	0,02895	0,00464
86,52899	0,02915	0,00457
86,53799	0,04426	0,00749
86,54699	0,08231	0,01187
86,55599	0,12805	0,01463
86,56499	0,18606	0,01370
86,57399	0,26474	0,01246
86,58299	0,33289	0,00623
86,59199	0,40104	0,00477
86,60099	0,48211	0,00695
86,60999	0,53799	0,00718
86,61899	0,62249	0,00675
86,62799	0,68605	0,00663
86,63699	0,69561	0,00490
86,64599	0,76964	0,00611
86,65499	0,74367	0,00513
86,66399	0,64400	0,00526
86,67299	0,62106	0,00502
86,68199	0,53857	0,00664
86,69099	0,43101	0,00764
86,69999	0,32733	0,00701
86,70899	0,26151	0,00665
86,71799	0,18095	0,00787
86,72699	0,10996	0,00756
86,73599	0,05880	0,00898
86,74499	0,01216	0,01145
86,75399	0,01058	0,00982
86,76299	0,00264	0,01336
86,77199	0,01459	0,00449
86,78099	0,01523	0,00470
86,78999	0,01995	0,00766
86,79899	0,02789	0,01402
86,80799	0,02938	0,01357
86,81699	0,03190	0,01218
86,82599	0,03526	0,01085
86,83499	0,03293	0,00865
86,84399	0,03132	0,00628
86,85299	0,03112	0,00649
86,86199	0,02738	0,00816
86,87099	0,02408	0,00601
86,87999	0,01853	0,00635
86,88899	0,01724	0,00541
86,89799	0,01963	0,00613
86,90699	0,01659	0,00561
86,91599	0,01607	0,00528
86,92499	0,01433	0,00704
86,93399	0,00974	0,00779
86,94299	0,00625	0,00774
86,95199	0,01526	0,01428
86,96099	0,03574	0,01299
86,96999	0,09103	0,01148
86,97899	0,13935	0,00933
86,98799	0,20156	0,00749
86,99699	0,25628	0,00592
87,00599	0,30686	0,00496
87,01499	0,37946	0,00407
87,02399	0,44432	0,00454
87,03299	0,51609	0,00563
87,04199	0,59594	0,01094
87,05099	0,67126	0,01410
87,05999	0,69580	0,01345
87,06899	0,69865	0,01191
87,07799	0,67526	0,01216
87,08699	0,59581	0,01357
87,09599	0,50595	0,01197
87,10499	0,43224	0,01162
87,11399	0,33237	0,00979
87,12299	0,25149	0,00872
87,13199	0,17417	0,00551
87,14099	0,10905	0,00520
87,14999	0,05421	0,00578
87,15899	0,03716	0,00540
87,16799	0,03509	0,00627
87,17699	0,03263	0,00588
87,18599	0,03147	0,00550
87,19499	0,03044	0,00492
87,20399	0,03018	0,00528
87,21299	0,02831	0,00634
87,22199	0,02559	0,00819
87,23099	0,02230	0,00727
87,23999	0,02004	0,00785
87,24899	0,01855	0,00877
87,25799	0,01093	0,01186
87,26699	0,00395	0,01510
87,27599	0,00238	0,01403
87,28499	0,01138	0,01248
87,29399	0,00083	0,01450
87,30299	0,00477	0,01280
87,31199	0,00974	0,01029
87,32099	0,01439	0,00635
87,32999	0,01536	0,00486
87,33899	0,01536	0,00513
87,34799	0,02970	0,01423
87,35699	0,03145	0,01357
87,36599	0,03487	0,01126
87,37499	0,03539	0,01128
87,38399	0,03293	0,00861
87,39299	0,03074	0,00612
87,40199	0,01022	0,00538
87,41099	0,06409	0,00703
87,41999	0,12598	0,00769
87,42899	0,19245	0,00741
87,43799	0,26648	0,00669
87,44699	0,34529	0,00527
87,45599	0,40731	0,00613
87,46499	0,49652	0,00586
87,47399	0,55181	0,00643
87,48299	0,59497	0,00564
87,49199	0,61047	0,00623
87,50099	0,59729	0,00543
87,50999	0,52681	0,00537
87,51899	0,44335	0,00815
87,52799	0,37074	0,00941
87,53699	0,28354	0,00993
87,54599	0,16797	0,01290
87,55499	0,10621	0,01437
87,56399	0,05369	0,01374
87,57299	0,01539	0,01382
87,58199	0,01571	0,01411
87,59099	0,01713	0,01264
87,59999	0,01823	0,01269
87,60899	0,01894	0,01290
87,61799	0,01913	0,01194
87,62699	0,02010	0,01184
87,63599	0,02191	0,01126
87,64499	0,02443	0,01027
87,65399	0,02669	0,00865
87,66299	0,01616	0,01319
87,67199	0,01778	0,01288
87,68099	0,01946	0,01213
87,68999	0,02172	0,01131
87,69899	0,02437	0,01022
87,70799	0,02740	0,00719
87,71699	0,02940	0,00519
87,72599	0,03438	0,00801
87,73499	0,03793	0,01171
87,74399	0,03987	0,01316
87,75299	0,04213	0,01454
87,76199	0,04316	0,01439
87,77099	0,04342	0,01464
87,77999	0,04362	0,01401
87,78899	0,04368	0,01449
87,79799	0,04349	0,01469
87,80699	0,04362	0,01446
87,81599	0,04439	0,01366
87,82499	0,04355	0,01369
87,83399	0,08431	0,01342
87,84299	0,13858	0,01350
87,85199	0,19665	0,01313
87,86099	0,26377	0,01172
87,86999	0,31894	0,01283
87,87899	0,39038	0,01469
87,88799	0,46512	0,01382
87,89699	0,54787	0,01433
87,90599	0,61015	0,01084
87,91499	0,66551	0,01051
87,92399	0,65537	0,01274
87,93299	0,60550	0,00789
87,94199	0,55013	0,00540
87,95099	0,45401	0,00630
87,95999	0,35375	0,00621
87,96899	0,28173	0,00512
87,97799	0,21241	0,00556
87,98699	0,13354	0,00494
87,99599	0,07630	0,00608
88,00499	0,04568	0,00648
88,01399	0,04562	0,00694
88,02299	0,04626	0,00554
88,03199	0,04620	0,00476
88,04099	0,04581	0,00569
88,04999	0,04995	0,01118
88,05899	0,04943	0,01082
88,06799	0,04930	0,01023
88,07699	0,04562	0,00564
88,08599	0,05033	0,01115
88,09499	0,04969	0,01086
88,10399	0,05027	0,01149
88,11299	0,04536	0,00605
88,12199	0,04530	0,00564
88,13099	0,04543	0,00587
88,13999	0,04555	0,00600
88,14899	0,04536	0,00626
88,15799	0,04478	0,00594
88,16699	0,04620	0,00568
88,17599	0,04575	0,00542
88,18499	0,04536	0,00581
88,19399	0,04555	0,00598
88,20299	0,04555	0,00571
88,21199	0,04555	0,00533
88,22099	0,04581	0,00596
88,22999	0,04588	0,00454
88,23899	0,04969	0,01150
88,24799	0,04975	0,01119
88,25699	0,04988	0,01112
88,26599	0,05428	0,01080
88,27499	0,10789	0,01106
88,28399	0,16358	0,01089
88,29299	0,23212	0,00500
88,30199	0,30317	0,01087
88,31099	0,37178	0,01061
88,31999	0,44083	0,00601
88,32899	0,53069	0,00559
88,33799	0,59322	0,00565
88,34699	0,62752	0,00557
88,35599	0,64626	0,00553
88,36499	0,61280	0,00590
88,37399	0,53935	0,00576
88,38299	0,46247	0,00575
88,39199	0,36829	0,00536
88,40099	0,27223	0,00585
88,40999	0,16655	0,00667
88,41899	0,10176	0,00649
88,42799	0,04601	0,00611
88,43699	0,04975	0,01117
88,44599	0,04988	0,01108
88,45499	0,04988	0,01152
88,46399	0,04982	0,01107
88,47299	0,05008	0,01020
88,48199	0,05021	0,01129
88,49099	0,04937	0,01151
88,49999	0,04788	0,01008
88,50899	0,04452	0,00792
88,51799	0,04303	0,00781
88,52699	0,04155	0,00747
88,53599	0,03974	0,00782
88,54499	0,03884	0,00597
88,55399	0,03774	0,00607
88,56299	0,03683	0,00524
88,57199	0,03599	0,00585
88,58099	0,03270	0,00673
88,58999	0,03134	0,00639
88,59899	0,03128	0,00541
88,60799	0,02953	0,00601
88,61699	0,02811	0,00713
88,62599	0,03134	0,00611
88,63499	0,03102	0,00569
88,64399	0,03070	0,00555
88,65299	0,02882	0,00683
88,66199	0,02624	0,00791
88,67099	0,02243	0,00730
88,67999	0,02055	0,00757
88,68899	0,01933	0,00872
88,69799	0,00399	0,01273
88,70699	0,00554	0,01213
88,71599	0,00871	0,01087
88,72499	0,00490	0,00883
88,73399	0,03800	0,00497
88,74299	0,10918	0,00529
88,75199	0,18780	0,00433
88,76099	0,27281	0,00498
88,76999	0,36512	0,00611
88,77899	0,43340	0,01230
88,78799	0,48747	0,01414
88,79699	0,55169	0,01345
88,80599	0,56286	0,01385
88,81499	0,53457	0,01266
88,82399	0,48689	0,01536
88,83299	0,40227	0,01458
88,84199	0,29025	0,01448
88,85099	0,19865	0,01268
88,85999	0,10757	0,01286
88,86899	0,01629	0,01120
88,87799	0,03151	0,00559
88,88699	0,03171	0,00610
88,89599	0,03003	0,00797
88,90499	0,02983	0,00729
88,91399	0,02751	0,00776
88,92299	0,02667	0,00794
88,93199	0,02641	0,00742
88,94099	0,02550	0,00706
88,94999	0,02531	0,00756
88,95899	0,02550	0,00722
88,96799	0,02518	0,00768
88,97699	0,02557	0,00744
88,98599	0,02602	0,00754
88,99499	0,02699	0,00778
89,00399	0,03106	0,00722
89,01299	0,03138	0,00661
89,02199	0,03216	0,00800
89,03099	0,03351	0,00891
89,03999	0,03423	0,01032
89,04899	0,03552	0,01070
89,05799	0,03171	0,00674
89,06699	0,03339	0,01311
89,07599	0,03177	0,00775
89,08499	0,03345	0,00884
89,09399	0,03487	0,01055
89,10299	0,03448	0,01048
89,11199	0,03571	0,01083
89,12099	0,03584	0,01109
89,12999	0,03558	0,01135
89,13899	0,03539	0,01066
89,14799	0,03565	0,01151
89,15699	0,03532	0,01112
89,16599	0,03532	0,01106
89,17499	0,03565	0,01108
89,18399	0,02777	0,01041
89,19299	0,03367	0,01086
89,20199	0,10331	0,01356
89,21099	0,17475	0,01370
89,21999	0,25298	0,01331
89,22899	0,31480	0,01337
89,23799	0,39096	0,01287
89,24699	0,47126	0,01177
89,25599	0,51913	0,00648
89,26499	0,52882	0,01138
89,27399	0,52371	0,00558
89,28299	0,46887	0,00647
89,29199	0,39012	0,00621
89,30099	0,29736	0,00781
89,30999	0,22049	0,00809
89,31899	0,13599	0,00751
89,32799	0,05389	0,00809
89,33699	0,02266	0,00754
89,34599	0,02550	0,00772
89,35499	0,02492	0,00676
89,36399	0,02428	0,00685
89,37299	0,02299	0,00624
89,38199	0,02253	0,00536
89,39099	0,02873	0,00782
89,39999	0,02576	0,00756
89,40899	0,02505	0,00675
89,41799	0,02376	0,00631
89,42699	0,02344	0,00580
89,43599	0,02137	0,00606
89,44499	0,01846	0,00645
89,45399	0,01665	0,00623
89,46299	0,01633	0,00571
89,47199	0,00690	0,00716
89,48099	0,00483	0,00768
89,48999	0,00425	0,00861
89,49899	0,00283	0,00922
89,50799	0,00085	0,01118
89,51699	0,00583	0,01306
89,52599	0,00906	0,01423
89,53499	0,01112	0,01470
89,54399	0,01390	0,01421
89,55299	0,01552	0,01429
89,56199	0,01558	0,01399
89,57099	0,01577	0,01361
89,57999	0,00425	0,00835
89,58899	0,00445	0,00837
89,59799	0,00509	0,00785
89,60699	0,00516	0,00847
89,61599	0,00671	0,00745
89,62499	0,00703	0,00751
89,63399	0,00709	0,00802
89,64299	0,00871	0,00783
89,65199	0,00337	0,01272
89,66099	0,01732	0,01058
89,66999	0,06752	0,01042
89,67899	0,14775	0,00906
89,68799	0,22113	0,00881
89,69699	0,31151	0,00927
89,70599	0,37869	0,00993
89,71499	0,45614	0,00922
89,72399	0,51868	0,00977
89,73299	0,53618	0,00968
89,74199	0,51189	0,00919
89,75099	0,45414	0,00870
89,75999	0,36196	0,00959
89,76899	0,26306	0,00905
89,77799	0,15873	0,00798
89,78699	0,06248	0,00791
89,79599	0,00716	0,00745
89,80499	0,00638	0,00732
89,81399	0,01345	0,01385
89,82299	0,00457	0,00877
89,83199	0,01726	0,01288
89,84099	0,01804	0,01264
89,84999	0,01991	0,01204
89,85899	0,02223	0,01080
89,86799	0,02656	0,00852
89,87699	0,02979	0,00491
89,88599	0,02953	0,00475
89,89499	0,02876	0,00454
89,90399	0,02928	0,00459
89,91299	0,03173	0,00605
89,92199	0,03554	0,00959
89,93099	0,03987	0,01409
89,93999	0,04271	0,01401
89,94899	0,04323	0,01428
89,95799	0,04316	0,01362
89,96699	0,03457	0,00805
89,97599	0,03767	0,01160
89,98499	0,03864	0,01284
89,99399	0,04045	0,01392
90,00299	0,04265	0,01414
90,01199	0,04329	0,01486
