angle-spectrum Gruppe601.dat
13.09.2021
11:50:25
Gruppe6
 Temp: NON
angel	 rel signal 	s (std. deviation)				
60,01000	0,66928	0,00718
60,02000	0,03583	0,00308
60,03000	0,00761	0,00576
60,04000	0,00865	0,00524
60,05000	0,00973	0,00534
60,06000	0,01023	0,00525
60,07000	0,01068	0,00556
60,08000	0,01131	0,00588
60,09000	0,02628	0,01023
60,10000	0,02687	0,01019
60,11000	0,02723	0,01032
60,12000	0,02764	0,01025
60,13000	0,02732	0,00949
60,14000	0,02655	0,01032
60,15000	0,02674	0,01059
60,16000	0,02624	0,01040
60,17000	0,01154	0,00600
60,18000	0,01086	0,00573
60,19000	0,01073	0,00528
60,20000	0,00991	0,00472
60,21000	0,79717	0,00082
60,22000	0,87916	0,00071
60,23000	0,91416	0,00086
60,24000	0,93727	0,00073
60,25000	0,95437	0,00073
60,26000	0,96513	0,00059
60,27000	0,97517	0,00053
60,28000	0,98291	0,00050
60,29000	0,98589	0,00076
60,30000	0,98399	0,00084
60,31000	0,97865	0,00071
60,32000	0,96884	0,00083
60,33000	0,95681	0,00100
60,34000	0,93913	0,00078
60,35000	0,92176	0,00060
60,36000	0,88879	0,00083
60,37000	0,82046	0,00053
60,38000	0,38070	0,01116
60,39000	0,03560	0,00308
60,40000	0,04076	0,00926
60,41000	0,04591	0,01196
60,42000	0,04700	0,01167
60,43000	0,04844	0,01044
60,44000	0,05147	0,00872
60,45000	0,05156	0,00791
60,46000	0,04808	0,00553
60,47000	0,04709	0,00358
60,48000	0,04749	0,00285
60,49000	0,04682	0,00471
60,50000	0,04505	0,00571
60,51000	0,03953	0,00534
60,52000	0,04333	0,00513
60,53000	0,03736	0,00558
60,54000	0,03691	0,00536
60,55000	0,03637	0,00513
60,56000	0,03524	0,00601
60,57000	0,03415	0,00644
60,58000	0,81752	0,00077
60,59000	0,88527	0,00067
60,60000	0,91566	0,00072
60,61000	0,93465	0,00066
60,62000	0,95129	0,00093
60,63000	0,96644	0,00102
60,64000	0,97734	0,00072
60,65000	0,98417	0,00097
60,66000	0,98621	0,00052
60,67000	0,98471	0,00081
60,68000	0,97825	0,00066
60,69000	0,96947	0,00077
60,70000	0,95753	0,00073
60,71000	0,94103	0,00081
60,72000	0,92407	0,00067
60,73000	0,90277	0,00078
60,74000	0,85990	0,00131
60,75000	0,74213	0,00197
60,76000	0,00840	0,01181
60,77000	0,00881	0,01214
60,78000	0,00922	0,01157
60,79000	0,01030	0,01094
60,80000	0,01152	0,00954
60,81000	0,00822	0,01212
60,82000	0,00899	0,01101
60,83000	0,00931	0,01143
60,84000	0,00971	0,01141
60,85000	0,01035	0,01093
60,86000	0,01170	0,01027
60,87000	0,01179	0,01007
60,88000	0,01234	0,01041
60,89000	0,01261	0,00979
60,90000	0,01284	0,01016
60,91000	0,01329	0,00874
60,92000	0,01406	0,00918
60,93000	0,01360	0,00841
60,94000	0,46753	0,01399
60,95000	0,86514	0,00073
60,96000	0,90024	0,00083
60,97000	0,92022	0,00091
60,98000	0,93954	0,00073
60,99000	0,95401	0,00073
61,00000	0,96735	0,00105
61,01000	0,97829	0,00049
61,02000	0,98521	0,00053
61,03000	0,98793	0,00088
61,04000	0,98318	0,00086
61,05000	0,97571	0,00088
61,06000	0,96531	0,00078
61,07000	0,95414	0,00093
61,08000	0,93736	0,00108
61,09000	0,92081	0,00059
61,10000	0,89775	0,00072
61,11000	0,85795	0,00096
61,12000	0,71351	0,00220
61,13000	0,01401	0,00858
61,14000	0,01388	0,00867
61,15000	0,00994	0,00282
61,16000	0,00962	0,00362
61,17000	0,00976	0,00346
61,18000	0,00981	0,00347
61,19000	0,00981	0,00355
61,20000	0,00985	0,00341
61,21000	0,00990	0,00318
61,22000	0,01008	0,00299
61,23000	0,00971	0,00425
61,24000	0,01211	0,00685
61,25000	0,01066	0,00500
61,26000	0,00949	0,00405
61,27000	0,00962	0,00336
61,28000	0,00999	0,00317
61,29000	0,00967	0,00419
61,30000	0,00867	0,00499
61,31000	0,79143	0,00091
61,32000	0,87496	0,00082
61,33000	0,90942	0,00099
61,34000	0,93017	0,00058
61,35000	0,94713	0,00067
61,36000	0,96147	0,00095
61,37000	0,97241	0,00053
61,38000	0,98078	0,00087
61,39000	0,98553	0,00063
61,40000	0,98566	0,00093
61,41000	0,98575	0,00077
61,42000	0,97802	0,00066
61,43000	0,96427	0,00072
61,44000	0,95138	0,00096
61,45000	0,93433	0,00076
61,46000	0,91050	0,00123
61,47000	0,87378	0,00077
61,48000	0,81399	0,00103
61,49000	0,46943	0,00540
61,50000	0,00696	0,00582
61,51000	0,00804	0,00564
61,52000	0,00949	0,00402
61,53000	0,00985	0,00344
61,54000	0,00953	0,00366
61,55000	0,00931	0,00329
61,56000	0,00967	0,00377
61,57000	0,01121	0,00631
61,58000	0,00990	0,00466
61,59000	0,00953	0,00392
61,60000	0,00981	0,00344
61,61000	0,00931	0,00360
61,62000	0,00926	0,00337
61,63000	0,00931	0,00384
61,64000	0,00940	0,00347
61,65000	0,00940	0,00322
61,66000	0,00949	0,00397
61,67000	0,01211	0,00949
61,68000	0,82720	0,00072
61,69000	0,87943	0,00083
61,70000	0,91353	0,00071
61,71000	0,93302	0,00092
61,72000	0,94890	0,00060
61,73000	0,96102	0,00073
61,74000	0,97278	0,00084
61,75000	0,98110	0,00057
61,76000	0,98598	0,00072
61,77000	0,98639	0,00043
61,78000	0,98358	0,00085
61,79000	0,97644	0,00092
61,80000	0,96830	0,00043
61,81000	0,95446	0,00053
61,82000	0,93863	0,00093
61,83000	0,91810	0,00052
61,84000	0,88463	0,00066
61,85000	0,83538	0,00090
61,86000	0,32363	0,00251
61,87000	0,01017	0,00416
61,88000	0,01284	0,00727
61,89000	0,01202	0,00597
61,90000	0,01008	0,00398
61,91000	0,00976	0,00290
61,92000	0,00999	0,00327
61,93000	0,01008	0,00397
61,94000	0,00822	0,00511
61,95000	0,00655	0,00542
61,96000	0,00564	0,00507
61,97000	0,00397	0,00458
61,98000	0,00295	0,00548
61,99000	0,00064	0,00485
62,00000	0,00973	0,00497
62,01000	0,01113	0,00579
62,02000	0,01507	0,00793
62,03000	0,02131	0,00968
62,04000	0,02642	0,01010
62,05000	0,83724	0,00073
62,06000	0,88911	0,00076
62,07000	0,91977	0,00073
62,08000	0,93945	0,00061
62,09000	0,95337	0,00072
62,10000	0,96459	0,00056
62,11000	0,97472	0,00093
62,12000	0,98128	0,00061
62,13000	0,98304	0,00077
62,14000	0,98422	0,00083
62,15000	0,98150	0,00073
62,16000	0,97372	0,00087
62,17000	0,96359	0,00096
62,18000	0,95021	0,00072
62,19000	0,93809	0,00097
62,20000	0,91444	0,00081
62,21000	0,88581	0,00052
62,22000	0,82562	0,00094
62,23000	0,27483	0,00381
62,24000	0,04442	0,00584
62,25000	0,04351	0,00589
62,26000	0,04261	0,00495
62,27000	0,04094	0,00388
62,28000	0,03831	0,00497
62,29000	0,03714	0,00525
62,30000	0,03732	0,00562
62,31000	0,04139	0,00452
62,32000	0,03958	0,00513
62,33000	0,03750	0,00480
62,34000	0,03736	0,00472
62,35000	0,03641	0,00489
62,36000	0,03438	0,00573
62,37000	0,03198	0,00595
62,38000	0,02909	0,00525
62,39000	0,02741	0,00507
62,40000	0,02655	0,00560
62,41000	0,71898	0,00294
62,42000	0,86360	0,00063
62,43000	0,89847	0,00072
62,44000	0,92583	0,00103
62,45000	0,94252	0,00066
62,46000	0,95817	0,00059
62,47000	0,96943	0,00075
62,48000	0,97798	0,00061
62,49000	0,98494	0,00103
62,50000	0,98761	0,00084
62,51000	0,98580	0,00073
62,52000	0,98128	0,00084
62,53000	0,97273	0,00075
62,54000	0,96170	0,00067
62,55000	0,94677	0,00061
62,56000	0,93311	0,00093
62,57000	0,91141	0,00078
62,58000	0,87116	0,00073
62,59000	0,81246	0,00067
62,60000	0,00336	0,00297
62,61000	0,00281	0,00341
62,62000	0,00209	0,00301
62,63000	0,00261	0,00775
62,64000	0,00227	0,00219
62,65000	0,00569	0,01035
62,66000	0,00809	0,01091
62,67000	0,00867	0,01034
62,68000	0,00895	0,01001
62,69000	0,00917	0,00991
62,70000	0,00971	0,00957
62,71000	0,01161	0,00906
62,72000	0,01297	0,00728
62,73000	0,00840	0,01040
62,74000	0,00899	0,01020
62,75000	0,01048	0,00882
62,76000	0,01179	0,00883
62,77000	0,01306	0,00764
62,78000	0,82539	0,00077
62,79000	0,87749	0,00083
62,80000	0,90734	0,00083
62,81000	0,92931	0,00063
62,82000	0,94324	0,00072
62,83000	0,95645	0,00069
62,84000	0,96812	0,00082
62,85000	0,97666	0,00069
62,86000	0,98399	0,00093
62,87000	0,98729	0,00077
62,88000	0,98621	0,00072
62,89000	0,98408	0,00076
62,90000	0,97571	0,00101
62,91000	0,96631	0,00096
62,92000	0,95220	0,00101
62,93000	0,93827	0,00077
62,94000	0,92086	0,00060
62,95000	0,90010	0,00073
62,96000	0,86284	0,00075
62,97000	0,77166	0,00093
62,98000	0,01104	0,00531
62,99000	0,01235	0,00602
63,00000	0,01493	0,00736
63,01000	0,01751	0,00955
63,02000	0,02126	0,00978
63,03000	0,02289	0,01025
63,04000	0,02416	0,01013
63,05000	0,02515	0,00998
63,06000	0,03510	0,00341
63,07000	0,03506	0,00315
63,08000	0,03533	0,00285
63,09000	0,03479	0,00337
63,10000	0,03510	0,00350
63,11000	0,03433	0,00389
63,12000	0,03515	0,00410
63,13000	0,03415	0,00414
63,14000	0,03397	0,00471
63,15000	0,79979	0,00088
63,16000	0,86600	0,00063
63,17000	0,90132	0,00061
63,18000	0,92389	0,00107
63,19000	0,94058	0,00109
63,20000	0,95301	0,00093
63,21000	0,96450	0,00066
63,22000	0,97481	0,00083
63,23000	0,98196	0,00097
63,24000	0,98643	0,00085
63,25000	0,98752	0,00094
63,26000	0,98512	0,00083
63,27000	0,98028	0,00075
63,28000	0,97169	0,00078
63,29000	0,96038	0,00056
63,30000	0,94777	0,00082
63,31000	0,93302	0,00066
63,32000	0,91611	0,00077
63,33000	0,89589	0,00061
63,34000	0,86062	0,00079
63,35000	0,75059	0,00122
63,36000	0,16616	0,01051
63,37000	0,03551	0,00252
63,38000	0,03592	0,00318
63,39000	0,03754	0,00488
63,40000	0,04265	0,00955
63,41000	0,04519	0,01056
63,42000	0,04618	0,01029
63,43000	0,04605	0,01002
63,44000	0,04731	0,00883
63,45000	0,04926	0,00909
63,46000	0,05057	0,00795
63,47000	0,05066	0,00720
63,48000	0,04980	0,00697
63,49000	0,04790	0,00472
63,50000	0,04424	0,00536
63,51000	0,07951	0,00453
63,52000	0,79970	0,00078
63,53000	0,86930	0,00083
63,54000	0,89838	0,00083
63,55000	0,91928	0,00092
63,56000	0,93718	0,00101
63,57000	0,95233	0,00089
63,58000	0,96391	0,00057
63,59000	0,97467	0,00085
63,60000	0,98141	0,00077
63,61000	0,98607	0,00083
63,62000	0,98869	0,00083
63,63000	0,98684	0,00077
63,64000	0,98187	0,00077
63,65000	0,97359	0,00104
63,66000	0,96441	0,00083
63,67000	0,95342	0,00060
63,68000	0,93949	0,00064
63,69000	0,92479	0,00069
63,70000	0,90584	0,00079
63,71000	0,88160	0,00064
63,72000	0,82164	0,00099
63,73000	0,34276	0,00392
63,74000	0,03691	0,00484
63,75000	0,03659	0,00440
63,76000	0,03669	0,00453
63,77000	0,03682	0,00478
63,78000	0,03714	0,00494
63,79000	0,03727	0,00418
63,80000	0,04306	0,00495
63,81000	0,04338	0,00498
63,82000	0,04374	0,00476
63,83000	0,04469	0,00495
63,84000	0,04528	0,00501
63,85000	0,04464	0,00517
63,86000	0,04464	0,00501
63,87000	0,04532	0,00528
63,88000	0,04492	0,00518
63,89000	0,77103	0,00085
63,90000	0,85999	0,00069
63,91000	0,89164	0,00063
63,92000	0,91729	0,00088
63,93000	0,93289	0,00095
63,94000	0,94632	0,00073
63,95000	0,95799	0,00053
63,96000	0,96848	0,00067
63,97000	0,97761	0,00077
63,98000	0,98376	0,00067
63,99000	0,98716	0,00058
64,00000	0,98860	0,00099
64,01000	0,98440	0,00087
64,02000	0,97811	0,00076
64,03000	0,96920	0,00082
64,04000	0,95826	0,00056
64,05000	0,94623	0,00078
64,06000	0,93302	0,00092
64,07000	0,91421	0,00067
64,08000	0,88721	0,00079
64,09000	0,84588	0,00061
64,10000	0,69284	0,00283
64,11000	0,02633	0,00583
64,12000	0,02561	0,00664
64,13000	0,00932	0,00834
64,14000	0,01715	0,00942
64,15000	0,00507	0,00627
64,16000	0,00290	0,00356
64,17000	0,00191	0,00278
64,18000	0,00250	0,00222
64,19000	0,00204	0,00271
64,20000	0,00204	0,00275
64,21000	0,00013	0,00461
64,22000	0,00231	0,00247
64,23000	0,00236	0,00284
64,24000	0,00159	0,00405
64,25000	0,00117	0,00574
64,26000	0,74869	0,00163
64,27000	0,85646	0,00054
64,28000	0,89309	0,00065
64,29000	0,91982	0,00094
64,30000	0,93646	0,00077
64,31000	0,95120	0,00093
64,32000	0,96301	0,00070
64,33000	0,97169	0,00060
64,34000	0,97893	0,00078
64,35000	0,98431	0,00083
64,36000	0,98743	0,00081
64,37000	0,98689	0,00083
64,38000	0,98354	0,00081
64,39000	0,97675	0,00084
64,40000	0,96766	0,00072
64,41000	0,95636	0,00082
64,42000	0,94243	0,00056
64,43000	0,92827	0,00083
64,44000	0,90792	0,00080
64,45000	0,88160	0,00064
64,46000	0,83059	0,00083
64,47000	0,41743	0,00503
64,48000	0,00917	0,00435
64,49000	0,00917	0,00439
64,50000	0,00917	0,00415
64,51000	0,00917	0,00431
64,52000	0,00935	0,00380
64,53000	0,00962	0,00430
64,54000	0,00976	0,00415
64,55000	0,00908	0,00427
64,56000	0,00501	0,00479
64,57000	0,00913	0,00468
64,58000	0,00474	0,00475
64,59000	0,00483	0,00459
64,60000	0,00488	0,00452
64,61000	0,00637	0,01030
64,62000	0,74290	0,00104
64,63000	0,84805	0,00080
64,64000	0,88762	0,00066
64,65000	0,91353	0,00065
64,66000	0,93235	0,00069
64,67000	0,94781	0,00079
64,68000	0,96066	0,00083
64,69000	0,97160	0,00078
64,70000	0,98028	0,00090
64,71000	0,98584	0,00056
64,72000	0,98865	0,00100
64,73000	0,98679	0,00095
64,74000	0,98458	0,00072
64,75000	0,97811	0,00058
64,76000	0,96839	0,00053
64,77000	0,95668	0,00064
64,78000	0,94768	0,00078
64,79000	0,93461	0,00066
64,80000	0,91367	0,00083
64,81000	0,88436	0,00061
64,82000	0,84922	0,00054
64,83000	0,75186	0,00109
64,84000	0,03587	0,00268
64,85000	0,03542	0,00242
64,86000	0,03239	0,00594
64,87000	0,03433	0,00391
64,88000	0,03528	0,00268
64,89000	0,03546	0,00247
64,90000	0,03574	0,00274
64,91000	0,03596	0,00305
64,92000	0,03610	0,00295
64,93000	0,03786	0,00461
64,94000	0,03953	0,00624
64,95000	0,04284	0,00993
64,96000	0,04559	0,01077
64,97000	0,31463	0,01693
64,98000	0,82693	0,00073
64,99000	0,87527	0,00086
65,00000	0,90403	0,00084
65,01000	0,92615	0,00117
65,02000	0,94144	0,00066
65,03000	0,95396	0,00070
65,04000	0,96531	0,00045
65,05000	0,97418	0,00087
65,06000	0,98205	0,00073
65,07000	0,98711	0,00087
65,08000	0,98865	0,00092
65,09000	0,98811	0,00099
65,10000	0,98304	0,00077
65,11000	0,97553	0,00087
65,12000	0,96563	0,00080
65,13000	0,95401	0,00067
65,14000	0,93963	0,00092
65,15000	0,92742	0,00072
65,16000	0,90716	0,00056
65,17000	0,87631	0,00100
65,18000	0,83299	0,00094
65,19000	0,46229	0,00338
65,20000	0,00064	0,00457
65,21000	0,00985	0,00911
65,22000	0,01193	0,00941
65,23000	0,01329	0,00729
65,24000	0,01225	0,00693
65,25000	0,01057	0,00494
65,26000	0,00926	0,00407
65,27000	0,01021	0,00313
65,28000	0,00962	0,00413
65,29000	0,01112	0,00597
65,30000	0,00971	0,00353
65,31000	0,00944	0,00381
65,32000	0,38658	0,00552
65,33000	0,82476	0,00077
65,34000	0,87247	0,00063
65,35000	0,90214	0,00081
65,36000	0,92240	0,00103
65,37000	0,93777	0,00080
65,38000	0,95157	0,00087
65,39000	0,96328	0,00095
65,40000	0,97241	0,00078
65,41000	0,98087	0,00094
65,42000	0,98652	0,00081
65,43000	0,98937	0,00082
65,44000	0,98915	0,00090
65,45000	0,98634	0,00102
65,46000	0,97942	0,00066
65,47000	0,97151	0,00053
65,48000	0,96093	0,00050
65,49000	0,94908	0,00066
65,50000	0,93547	0,00083
65,51000	0,92063	0,00077
65,52000	0,90241	0,00064
65,53000	0,87595	0,00090
65,54000	0,83430	0,00086
65,55000	0,65865	0,00497
65,56000	0,05052	0,00761
65,57000	0,04962	0,00696
65,58000	0,04731	0,00357
65,59000	0,04799	0,00266
65,60000	0,04641	0,00522
65,61000	0,04392	0,00501
65,62000	0,04306	0,00516
65,63000	0,04202	0,00432
65,64000	0,03940	0,00497
65,65000	0,03347	0,00560
65,66000	0,04835	0,00689
65,67000	0,74073	0,00085
65,68000	0,84389	0,00081
65,69000	0,87631	0,00072
65,70000	0,90313	0,00054
65,71000	0,92068	0,00102
65,72000	0,93361	0,00097
65,73000	0,94731	0,00066
65,74000	0,95980	0,00067
65,75000	0,96925	0,00080
65,76000	0,97748	0,00099
65,77000	0,98363	0,00079
65,78000	0,98892	0,00082
65,79000	0,98973	0,00093
65,80000	0,98743	0,00095
65,81000	0,98345	0,00072
65,82000	0,97549	0,00061
65,83000	0,96509	0,00065
65,84000	0,95432	0,00105
65,85000	0,94365	0,00105
65,86000	0,92868	0,00097
65,87000	0,91665	0,00063
65,88000	0,89987	0,00073
65,89000	0,88083	0,00077
65,90000	0,85189	0,00072
65,91000	0,77017	0,00117
65,92000	0,19872	0,00988
65,93000	0,00087	0,00443
65,94000	0,00035	0,00538
65,95000	0,00334	0,00833
65,96000	0,00727	0,01069
65,97000	0,00777	0,01049
65,98000	0,00840	0,01024
65,99000	0,00908	0,00994
66,00000	0,00949	0,00949
66,01000	0,02809	0,00852
66,02000	0,60660	0,00499
66,03000	0,82245	0,00083
66,04000	0,86510	0,00094
66,05000	0,89259	0,00100
66,06000	0,91104	0,00097
66,07000	0,92809	0,00078
66,08000	0,94130	0,00086
66,09000	0,95405	0,00069
66,10000	0,96450	0,00059
66,11000	0,97287	0,00094
66,12000	0,98033	0,00072
66,13000	0,98675	0,00075
66,14000	0,98951	0,00065
66,15000	0,98960	0,00060
66,16000	0,98702	0,00067
66,17000	0,98241	0,00073
66,18000	0,97540	0,00076
66,19000	0,96486	0,00053
66,20000	0,95487	0,00095
66,21000	0,94220	0,00070
66,22000	0,93004	0,00078
66,23000	0,91466	0,00073
66,24000	0,89585	0,00056
66,25000	0,86673	0,00061
66,26000	0,83389	0,00056
66,27000	0,67027	0,00303
66,28000	0,04727	0,00360
66,29000	0,04727	0,00406
66,30000	0,04550	0,00518
66,31000	0,04342	0,00500
66,32000	0,04207	0,00420
66,33000	0,03800	0,00494
66,34000	0,03655	0,00447
66,35000	0,03420	0,00595
66,36000	0,03705	0,00457
66,37000	0,40033	0,00801
66,38000	0,81219	0,00056
66,39000	0,85985	0,00113
66,40000	0,88631	0,00068
66,41000	0,90987	0,00085
66,42000	0,92524	0,00069
66,43000	0,93836	0,00103
66,44000	0,95102	0,00075
66,45000	0,96124	0,00067
66,46000	0,97047	0,00069
66,47000	0,97838	0,00099
66,48000	0,98521	0,00083
66,49000	0,98865	0,00066
66,50000	0,99005	0,00090
66,51000	0,98924	0,00076
66,52000	0,98458	0,00059
66,53000	0,97712	0,00088
66,54000	0,96794	0,00073
66,55000	0,95763	0,00045
66,56000	0,94872	0,00046
66,57000	0,93538	0,00061
66,58000	0,92203	0,00076
66,59000	0,90666	0,00081
66,60000	0,88427	0,00078
66,61000	0,85994	0,00053
66,62000	0,81105	0,00057
66,63000	0,30622	0,00649
66,64000	0,03564	0,00313
66,65000	0,04017	0,00729
66,66000	0,04609	0,00986
66,67000	0,04781	0,00937
66,68000	0,05066	0,00728
66,69000	0,04582	0,00529
66,70000	0,04383	0,00523
66,71000	0,04256	0,00493
66,72000	0,33240	0,00440
66,73000	0,80875	0,00088
66,74000	0,85293	0,00071
66,75000	0,88427	0,00073
66,76000	0,90200	0,00045
66,77000	0,92131	0,00075
66,78000	0,93578	0,00069
66,79000	0,94840	0,00108
66,80000	0,95853	0,00078
66,81000	0,96803	0,00078
66,82000	0,97685	0,00076
66,83000	0,98340	0,00083
66,84000	0,98797	0,00078
66,85000	0,98969	0,00067
66,86000	0,99028	0,00072
66,87000	0,98666	0,00077
66,88000	0,98146	0,00092
66,89000	0,97467	0,00075
66,90000	0,96554	0,00061
66,91000	0,95419	0,00069
66,92000	0,94397	0,00083
66,93000	0,93176	0,00078
66,94000	0,91697	0,00063
66,95000	0,89865	0,00052
66,96000	0,87771	0,00065
66,97000	0,84945	0,00088
66,98000	0,78781	0,00071
66,99000	0,33869	0,00563
67,00000	0,00100	0,00517
67,01000	0,00295	0,00520
67,02000	0,00666	0,00629
67,03000	0,00914	0,00544
67,04000	0,01095	0,00567
67,05000	0,01371	0,00651
67,06000	0,03569	0,00936
67,07000	0,66774	0,00446
67,08000	0,81363	0,00066
67,09000	0,85741	0,00069
67,10000	0,88414	0,00073
67,11000	0,90422	0,00081
67,12000	0,92131	0,00063
67,13000	0,93393	0,00082
67,14000	0,94560	0,00094
67,15000	0,95541	0,00078
67,16000	0,96527	0,00073
67,17000	0,97409	0,00069
67,18000	0,98046	0,00076
67,19000	0,98689	0,00078
67,20000	0,99010	0,00073
67,21000	0,99046	0,00077
67,22000	0,98906	0,00068
67,23000	0,98553	0,00049
67,24000	0,97888	0,00053
67,25000	0,97033	0,00094
67,26000	0,96201	0,00063
67,27000	0,95247	0,00072
67,28000	0,93935	0,00059
67,29000	0,93036	0,00080
67,30000	0,91548	0,00093
67,31000	0,89766	0,00099
67,32000	0,87663	0,00054
67,33000	0,85072	0,00082
67,34000	0,81345	0,00066
67,35000	0,71577	0,00129
67,36000	0,05979	0,00384
67,37000	0,00430	0,00521
67,38000	0,00515	0,00491
67,39000	0,00702	0,00445
67,40000	0,04080	0,00466
67,41000	0,39888	0,00386
67,42000	0,77953	0,00092
67,43000	0,82896	0,00097
67,44000	0,86455	0,00092
67,45000	0,88703	0,00086
67,46000	0,90223	0,00054
67,47000	0,92081	0,00066
67,48000	0,93307	0,00110
67,49000	0,94519	0,00071
67,50000	0,95649	0,00054
67,51000	0,96558	0,00077
67,52000	0,97463	0,00052
67,53000	0,98137	0,00058
67,54000	0,98788	0,00067
67,55000	0,99086	0,00079
67,56000	0,99136	0,00077
67,57000	0,99005	0,00103
67,58000	0,98765	0,00094
67,59000	0,98083	0,00071
67,60000	0,97327	0,00087
67,61000	0,96631	0,00104
67,62000	0,95713	0,00067
67,63000	0,94474	0,00093
67,64000	0,93470	0,00091
67,65000	0,92339	0,00073
67,66000	0,91159	0,00072
67,67000	0,89142	0,00059
67,68000	0,87532	0,00088
67,69000	0,85433	0,00087
67,70000	0,82937	0,00107
67,71000	0,79079	0,00078
67,72000	0,74788	0,00077
67,73000	0,69361	0,00170
67,74000	0,70889	0,00105
67,75000	0,76036	0,00109
67,76000	0,79690	0,00096
67,77000	0,83733	0,00088
67,78000	0,86288	0,00065
67,79000	0,88016	0,00066
67,80000	0,89305	0,00066
67,81000	0,90946	0,00079
67,82000	0,92131	0,00063
67,83000	0,93063	0,00061
67,84000	0,94234	0,00072
67,85000	0,95229	0,00096
67,86000	0,96106	0,00072
67,87000	0,96925	0,00075
67,88000	0,97671	0,00092
67,89000	0,98395	0,00082
67,90000	0,98770	0,00081
67,91000	0,99064	0,00083
67,92000	0,99177	0,00102
67,93000	0,98915	0,00056
67,94000	0,98548	0,00077
67,95000	0,97988	0,00096
67,96000	0,97255	0,00067
67,97000	0,96482	0,00057
67,98000	0,95753	0,00083
67,99000	0,94727	0,00088
68,00000	0,93773	0,00073
68,01000	0,92280	0,00067
68,02000	0,91661	0,00095
68,03000	0,90548	0,00078
68,04000	0,89703	0,00088
68,05000	0,88536	0,00059
68,06000	0,86930	0,00060
68,07000	0,85990	0,00070
68,08000	0,84583	0,00088
68,09000	0,83299	0,00075
68,10000	0,83068	0,00058
68,11000	0,83380	0,00092
68,12000	0,84990	0,00061
68,13000	0,86021	0,00082
68,14000	0,87428	0,00099
68,15000	0,88888	0,00078
68,16000	0,89811	0,00056
68,17000	0,91086	0,00082
68,18000	0,92117	0,00063
68,19000	0,93099	0,00066
68,20000	0,94139	0,00085
68,21000	0,95152	0,00115
68,22000	0,96088	0,00066
68,23000	0,96843	0,00070
68,24000	0,97671	0,00077
68,25000	0,97811	0,00081
68,26000	0,98679	0,00081
68,27000	0,99096	0,00069
68,28000	0,99331	0,00097
68,29000	0,99240	0,00061
68,30000	0,98969	0,00067
68,31000	0,98535	0,00081
68,32000	0,97911	0,00068
68,33000	0,97101	0,00059
68,34000	0,96500	0,00079
68,35000	0,95482	0,00083
68,36000	0,94551	0,00077
68,37000	0,93596	0,00069
68,38000	0,92769	0,00067
68,39000	0,91629	0,00066
68,40000	0,90589	0,00092
68,41000	0,89314	0,00099
68,42000	0,88020	0,00073
68,43000	0,86596	0,00058
68,44000	0,85818	0,00069
68,45000	0,84981	0,00077
68,46000	0,84294	0,00085
68,47000	0,84502	0,00073
68,48000	0,85375	0,00079
68,49000	0,86003	0,00066
68,50000	0,87215	0,00078
68,51000	0,88604	0,00063
68,52000	0,89847	0,00077
68,53000	0,91055	0,00076
68,54000	0,91968	0,00069
68,55000	0,92959	0,00061
68,56000	0,93850	0,00069
68,57000	0,94700	0,00076
68,58000	0,95722	0,00060
68,59000	0,96473	0,00075
68,60000	0,97232	0,00076
68,61000	0,97978	0,00083
68,62000	0,98575	0,00066
68,63000	0,98937	0,00082
68,64000	0,99245	0,00067
68,65000	0,99353	0,00069
68,66000	0,99096	0,00090
68,67000	0,98969	0,00078
68,68000	0,98521	0,00093
68,69000	0,97789	0,00073
68,70000	0,97214	0,00075
68,71000	0,96513	0,00072
68,72000	0,95695	0,00076
68,73000	0,94817	0,00083
68,74000	0,93967	0,00036
68,75000	0,93081	0,00083
68,76000	0,92104	0,00078
68,77000	0,90851	0,00103
68,78000	0,89816	0,00104
68,79000	0,88468	0,00060
68,80000	0,87306	0,00073
68,81000	0,86663	0,00067
68,82000	0,86085	0,00083
68,83000	0,85610	0,00079
68,84000	0,85650	0,00056
68,85000	0,86220	0,00067
68,86000	0,86645	0,00063
68,87000	0,87921	0,00059
68,88000	0,89069	0,00101
68,89000	0,90241	0,00057
68,90000	0,91358	0,00059
68,91000	0,92371	0,00053
68,92000	0,93221	0,00073
68,93000	0,94012	0,00081
68,94000	0,95007	0,00050
68,95000	0,95817	0,00072
68,96000	0,96626	0,00072
68,97000	0,97336	0,00109
68,98000	0,97988	0,00092
68,99000	0,98553	0,00069
69,00000	0,99010	0,00061
69,01000	0,99394	0,00054
69,02000	0,99371	0,00053
69,03000	0,99335	0,00061
69,04000	0,99046	0,00096
69,05000	0,98526	0,00092
69,06000	0,97897	0,00052
69,07000	0,97305	0,00080
69,08000	0,96658	0,00078
69,09000	0,95699	0,00059
69,10000	0,95053	0,00084
69,11000	0,94130	0,00076
69,12000	0,93189	0,00053
69,13000	0,92389	0,00069
69,14000	0,91227	0,00085
69,15000	0,90168	0,00068
69,16000	0,88952	0,00080
69,17000	0,88169	0,00080
69,18000	0,87536	0,00085
69,19000	0,87030	0,00073
69,20000	0,87229	0,00071
69,21000	0,87577	0,00078
69,22000	0,87753	0,00078
69,23000	0,88866	0,00068
69,24000	0,89653	0,00078
69,25000	0,90598	0,00073
69,26000	0,91742	0,00072
69,27000	0,92773	0,00086
69,28000	0,93406	0,00076
69,29000	0,94220	0,00076
69,30000	0,95134	0,00075
69,31000	0,95903	0,00060
69,32000	0,96667	0,00093
69,33000	0,97409	0,00075
69,34000	0,98137	0,00071
69,35000	0,98652	0,00064
69,36000	0,99037	0,00056
69,37000	0,99403	0,00086
69,38000	0,99435	0,00059
69,39000	0,99353	0,00056
69,40000	0,99037	0,00063
69,41000	0,98666	0,00059
69,42000	0,98060	0,00073
69,43000	0,97287	0,00080
69,44000	0,96631	0,00100
69,45000	0,95713	0,00067
69,46000	0,95093	0,00082
69,47000	0,94229	0,00069
69,48000	0,93271	0,00093
69,49000	0,92619	0,00086
69,50000	0,91842	0,00091
69,51000	0,90761	0,00080
69,52000	0,90204	0,00072
69,53000	0,89589	0,00068
69,54000	0,88961	0,00087
69,55000	0,88803	0,00085
69,56000	0,88911	0,00058
69,57000	0,89205	0,00083
69,58000	0,89517	0,00086
69,59000	0,90331	0,00107
69,60000	0,91236	0,00057
69,61000	0,91955	0,00073
69,62000	0,92733	0,00067
69,63000	0,93524	0,00071
69,64000	0,94234	0,00087
69,65000	0,94912	0,00077
69,66000	0,95799	0,00067
69,67000	0,96495	0,00072
69,68000	0,97142	0,00065
69,69000	0,97852	0,00072
69,70000	0,98517	0,00073
69,71000	0,98996	0,00073
69,72000	0,99349	0,00076
69,73000	0,99561	0,00097
69,74000	0,99475	0,00085
69,75000	0,99272	0,00087
69,76000	0,98978	0,00105
69,77000	0,98381	0,00076
69,78000	0,97617	0,00078
69,79000	0,96997	0,00081
69,80000	0,96314	0,00066
69,81000	0,95441	0,00088
69,82000	0,94745	0,00073
69,83000	0,94021	0,00084
69,84000	0,93253	0,00081
69,85000	0,92570	0,00080
69,86000	0,91928	0,00087
69,87000	0,91367	0,00067
69,88000	0,90847	0,00065
69,89000	0,90512	0,00081
69,90000	0,90358	0,00076
69,91000	0,90331	0,00090
69,92000	0,90752	0,00077
69,93000	0,91032	0,00063
69,94000	0,91389	0,00065
69,95000	0,91914	0,00101
69,96000	0,92538	0,00072
69,97000	0,93081	0,00066
69,98000	0,93755	0,00082
69,99000	0,94523	0,00087
70,00000	0,95265	0,00105
70,01000	0,95948	0,00099
70,02000	0,96721	0,00087
70,03000	0,97363	0,00094
70,04000	0,98073	0,00078
70,05000	0,98670	0,00073
70,06000	0,99195	0,00081
70,07000	0,99489	0,00099
70,08000	0,99634	0,00072
70,09000	0,99643	0,00067
70,10000	0,99344	0,00066
70,11000	0,98897	0,00091
70,12000	0,98544	0,00079
70,13000	0,97929	0,00081
70,14000	0,97115	0,00076
70,15000	0,96459	0,00069
70,16000	0,95876	0,00091
70,17000	0,95007	0,00050
70,18000	0,94329	0,00089
70,19000	0,93723	0,00083
70,20000	0,93040	0,00093
70,21000	0,92543	0,00097
70,22000	0,92041	0,00063
70,23000	0,91701	0,00072
70,24000	0,91652	0,00083
70,25000	0,91285	0,00073
70,26000	0,91331	0,00101
70,27000	0,91367	0,00073
70,28000	0,91756	0,00075
70,29000	0,92122	0,00068
70,30000	0,92615	0,00099
70,31000	0,93167	0,00052
70,32000	0,93773	0,00093
70,33000	0,94469	0,00075
70,34000	0,95057	0,00063
70,35000	0,95744	0,00066
70,36000	0,96414	0,00085
70,37000	0,96997	0,00065
70,38000	0,97617	0,00083
70,39000	0,98313	0,00069
70,40000	0,98806	0,00099
70,41000	0,99371	0,00078
70,42000	0,99634	0,00092
70,43000	0,99729	0,00063
70,44000	0,99557	0,00081
70,45000	0,99403	0,00071
70,46000	0,99001	0,00059
70,47000	0,98508	0,00066
70,48000	0,98064	0,00073
70,49000	0,97359	0,00086
70,50000	0,96635	0,00091
70,51000	0,95930	0,00069
70,52000	0,95410	0,00066
70,53000	0,94799	0,00092
70,54000	0,93994	0,00078
70,55000	0,93461	0,00072
70,56000	0,93013	0,00100
70,57000	0,92552	0,00083
70,58000	0,92212	0,00073
70,59000	0,91986	0,00071
70,60000	0,91937	0,00085
70,61000	0,91909	0,00078
70,62000	0,92208	0,00075
70,63000	0,92380	0,00077
70,64000	0,92678	0,00061
70,65000	0,93180	0,00054
70,66000	0,93623	0,00072
70,67000	0,94180	0,00061
70,68000	0,94627	0,00083
70,69000	0,95374	0,00080
70,70000	0,95993	0,00088
70,71000	0,96676	0,00077
70,72000	0,97205	0,00040
70,73000	0,97847	0,00069
70,74000	0,98404	0,00080
70,75000	0,98982	0,00077
70,76000	0,99344	0,00066
70,77000	0,99670	0,00063
70,78000	0,99751	0,00077
70,79000	0,99796	0,00066
70,80000	0,99525	0,00092
70,81000	0,99037	0,00075
70,82000	0,98548	0,00043
70,83000	0,98155	0,00105
70,84000	0,97409	0,00094
70,85000	0,96798	0,00073
70,86000	0,96206	0,00093
70,87000	0,95627	0,00078
70,88000	0,94872	0,00089
70,89000	0,94424	0,00085
70,90000	0,93990	0,00088
70,91000	0,93334	0,00073
70,92000	0,93162	0,00091
70,93000	0,92846	0,00068
70,94000	0,92561	0,00072
70,95000	0,92633	0,00093
70,96000	0,92701	0,00073
70,97000	0,92742	0,00082
70,98000	0,92986	0,00082
70,99000	0,93370	0,00083
71,00000	0,93700	0,00090
71,01000	0,94103	0,00081
71,02000	0,94668	0,00053
71,03000	0,95315	0,00085
71,04000	0,95722	0,00066
71,05000	0,96409	0,00073
71,06000	0,96866	0,00069
71,07000	0,97386	0,00070
71,08000	0,97978	0,00083
71,09000	0,98598	0,00088
71,10000	0,99096	0,00099
71,11000	0,99539	0,00068
71,12000	0,99774	0,00072
71,13000	0,99878	0,00097
71,14000	0,99724	0,00092
71,15000	0,99611	0,00083
71,16000	0,99276	0,00094
71,17000	0,98815	0,00079
71,18000	0,98182	0,00093
71,19000	0,97775	0,00091
71,20000	0,97187	0,00068
71,21000	0,96540	0,00082
71,22000	0,96093	0,00081
71,23000	0,95595	0,00089
71,24000	0,95062	0,00076
71,25000	0,94555	0,00081
71,26000	0,94139	0,00075
71,27000	0,93791	0,00094
71,28000	0,93393	0,00066
71,29000	0,93216	0,00099
71,30000	0,93153	0,00073
71,31000	0,93189	0,00101
71,32000	0,93343	0,00095
71,33000	0,93506	0,00085
71,34000	0,93764	0,00088
71,35000	0,94071	0,00082
71,36000	0,94478	0,00072
71,37000	0,94926	0,00079
71,38000	0,95455	0,00066
71,39000	0,95894	0,00073
71,40000	0,96378	0,00077
71,41000	0,97029	0,00097
71,42000	0,97617	0,00101
71,43000	0,98132	0,00107
71,44000	0,98575	0,00092
71,45000	0,99132	0,00081
71,46000	0,99543	0,00096
71,47000	0,99729	0,00049
71,48000	0,99901	0,00089
71,49000	0,99887	0,00082
71,50000	0,99688	0,00067
71,51000	0,99376	0,00064
71,52000	0,98951	0,00071
71,53000	0,98426	0,00078
71,54000	0,97829	0,00085
71,55000	0,97327	0,00092
71,56000	0,96834	0,00063
71,57000	0,96224	0,00082
71,58000	0,95772	0,00052
71,59000	0,95333	0,00065
71,60000	0,94885	0,00072
71,61000	0,94474	0,00097
71,62000	0,94243	0,00085
71,63000	0,93990	0,00067
71,64000	0,93773	0,00101
71,65000	0,93696	0,00079
71,66000	0,93831	0,00071
71,67000	0,93881	0,00069
71,68000	0,94107	0,00069
71,69000	0,94279	0,00059
71,70000	0,94582	0,00103
71,71000	0,94939	0,00088
71,72000	0,95351	0,00101
71,73000	0,95830	0,00084
71,74000	0,96170	0,00083
71,75000	0,96757	0,00067
71,76000	0,97255	0,00067
71,77000	0,97798	0,00078
71,78000	0,98254	0,00109
71,79000	0,98756	0,00096
71,80000	0,99195	0,00107
71,81000	0,99530	0,00086
71,82000	0,99923	0,00078
71,83000	1,00000	0,00090
71,84000	0,99896	0,00075
71,85000	0,99747	0,00069
71,86000	0,99408	0,00087
71,87000	0,99001	0,00100
71,88000	0,98575	0,00072
71,89000	0,98073	0,00072
71,90000	0,97549	0,00079
71,91000	0,97137	0,00069
71,92000	0,96699	0,00083
71,93000	0,96278	0,00085
71,94000	0,95763	0,00053
71,95000	0,95356	0,00088
71,96000	0,95021	0,00104
71,97000	0,94609	0,00086
71,98000	0,94487	0,00083
71,99000	0,94320	0,00085
72,00000	0,94220	0,00090
72,01000	0,94266	0,00088
72,02000	0,94257	0,00066
72,03000	0,94383	0,00105
72,04000	0,94664	0,00063
72,05000	0,94881	0,00081
72,06000	0,95220	0,00088
72,07000	0,95473	0,00072
72,08000	0,95826	0,00085
72,09000	0,96387	0,00078
72,10000	0,96794	0,00078
72,11000	0,97237	0,00072
72,12000	0,97721	0,00065
72,13000	0,98200	0,00095
72,14000	0,98630	0,00056
72,15000	0,99118	0,00072
72,16000	0,99493	0,00104
72,17000	0,99747	0,00049
72,18000	0,99878	0,00053
72,19000	0,99950	0,00087
72,20000	0,99769	0,00082
72,21000	0,99548	0,00107
72,22000	0,99141	0,00097
72,23000	0,98738	0,00073
72,24000	0,98223	0,00090
72,25000	0,97865	0,00071
72,26000	0,97391	0,00101
72,27000	0,96997	0,00071
72,28000	0,96491	0,00056
72,29000	0,96097	0,00080
72,30000	0,95767	0,00056
72,31000	0,95410	0,00096
72,32000	0,95129	0,00067
72,33000	0,94867	0,00087
72,34000	0,94713	0,00073
72,35000	0,94641	0,00066
72,36000	0,94569	0,00082
72,37000	0,94677	0,00073
72,38000	0,94722	0,00083
72,39000	0,94863	0,00085
72,40000	0,95143	0,00089
72,41000	0,95410	0,00066
72,42000	0,95722	0,00060
72,43000	0,96038	0,00063
72,44000	0,96482	0,00064
72,45000	0,96871	0,00081
72,46000	0,97223	0,00068
72,47000	0,97725	0,00085
72,48000	0,98055	0,00109
72,49000	0,98526	0,00066
72,50000	0,98942	0,00093
72,51000	0,99304	0,00084
72,52000	0,99466	0,00076
72,53000	0,99616	0,00087
72,54000	0,99806	0,00085
72,55000	0,99688	0,00067
72,56000	0,99358	0,00061
72,56999	0,99068	0,00088
72,57899	0,98892	0,00059
72,58799	0,98508	0,00083
72,59699	0,97924	0,00088
72,60599	0,97657	0,00086
72,61499	0,97259	0,00060
72,62399	0,97038	0,00059
72,63299	0,96473	0,00063
72,64199	0,96477	0,00067
72,65099	0,95975	0,00126
72,65999	0,95731	0,00071
72,66899	0,95545	0,00100
72,67799	0,95346	0,00078
72,68699	0,95057	0,00056
72,69599	0,95016	0,00079
72,70499	0,94944	0,00070
72,71399	0,94953	0,00069
72,72299	0,94939	0,00061
72,73199	0,94994	0,00067
72,74099	0,95161	0,00078
72,74999	0,95351	0,00061
72,75899	0,95518	0,00072
72,76799	0,95740	0,00073
72,77699	0,96093	0,00076
72,78599	0,96296	0,00093
72,79499	0,96635	0,00091
72,80399	0,97020	0,00073
72,81299	0,97431	0,00078
72,82199	0,97698	0,00097
72,83099	0,97988	0,00059
72,83999	0,98480	0,00085
72,84899	0,98657	0,00083
72,85799	0,98892	0,00066
72,86699	0,99313	0,00071
72,87599	0,99448	0,00073
72,88499	0,99584	0,00071
72,89399	0,99688	0,00083
72,90299	0,99507	0,00088
72,91199	0,99304	0,00079
72,92099	0,99231	0,00072
72,92999	0,99010	0,00109
72,93899	0,98471	0,00064
72,94799	0,98141	0,00072
72,95699	0,98200	0,00081
72,96599	0,97671	0,00092
72,97499	0,97083	0,00087
72,98399	0,97092	0,00069
72,99299	0,96653	0,00080
73,00199	0,96179	0,00087
73,01099	0,95971	0,00087
73,01999	0,95812	0,00066
73,02899	0,95518	0,00077
73,03799	0,95509	0,00075
73,04699	0,95224	0,00094
73,05599	0,95242	0,00081
73,06499	0,95098	0,00095
73,07399	0,95197	0,00079
73,08299	0,95283	0,00090
73,09199	0,95193	0,00075
73,10099	0,95464	0,00063
73,10999	0,95577	0,00086
73,11899	0,95853	0,00093
73,12799	0,95749	0,00056
73,13699	0,96174	0,00105
73,14599	0,96387	0,00067
73,15499	0,96662	0,00090
73,16399	0,97006	0,00068
73,17299	0,97074	0,00067
73,18199	0,97282	0,00072
73,19099	0,97644	0,00112
73,19999	0,98001	0,00068
73,20899	0,98300	0,00049
73,21799	0,98562	0,00070
73,22699	0,99145	0,00113
73,23599	0,99032	0,00089
73,24499	0,99091	0,00092
73,25399	0,99530	0,00091
73,26299	0,99439	0,00058
73,27199	0,99295	0,00063
73,28099	0,99281	0,00083
73,28999	0,99082	0,00075
73,29899	0,98860	0,00076
73,30799	0,98462	0,00085
73,31699	0,98073	0,00083
73,32599	0,97861	0,00080
73,33499	0,97585	0,00079
73,34399	0,97291	0,00073
73,35299	0,96875	0,00077
73,36199	0,96667	0,00067
73,37099	0,96219	0,00085
73,37999	0,96165	0,00088
73,38899	0,96056	0,00065
73,39799	0,95523	0,00078
73,40699	0,95554	0,00056
73,41599	0,95690	0,00056
73,42499	0,95536	0,00061
73,43399	0,95292	0,00087
73,44299	0,95604	0,00058
73,45199	0,95645	0,00080
73,46099	0,95532	0,00097
73,46999	0,95803	0,00067
73,47899	0,95952	0,00059
73,48799	0,95980	0,00083
73,49699	0,96219	0,00063
73,50599	0,96269	0,00082
73,51499	0,96491	0,00075
73,52399	0,96644	0,00073
73,53299	0,96843	0,00064
73,54199	0,96997	0,00076
73,55099	0,97201	0,00073
73,55999	0,97852	0,00059
73,56899	0,97689	0,00066
73,57799	0,97929	0,00081
73,58699	0,98395	0,00082
73,59599	0,98670	0,00089
73,60499	0,98996	0,00068
73,61399	0,99096	0,00090
73,62299	0,99231	0,00078
73,63199	0,99227	0,00092
73,64099	0,99064	0,00088
73,64999	0,98951	0,00076
73,65899	0,98494	0,00085
73,66799	0,98408	0,00091
73,67699	0,98571	0,00063
73,68599	0,98069	0,00073
73,69499	0,97594	0,00095
73,70399	0,97558	0,00094
73,71299	0,97318	0,00069
73,72199	0,96414	0,00080
73,73099	0,96685	0,00080
73,73999	0,96527	0,00061
73,74899	0,96495	0,00077
73,75799	0,95948	0,00063
73,76699	0,96097	0,00039
73,77599	0,95880	0,00072
73,78499	0,95772	0,00059
73,79399	0,95365	0,00052
73,80299	0,95482	0,00078
73,81199	0,95735	0,00039
73,82099	0,95432	0,00072
73,82999	0,95713	0,00073
73,83899	0,95744	0,00052
73,84799	0,95668	0,00086
73,85699	0,96047	0,00073
73,86599	0,95962	0,00090
73,87499	0,96106	0,00072
73,88399	0,96292	0,00085
73,89299	0,96540	0,00082
73,90199	0,96513	0,00087
73,91099	0,96861	0,00046
73,91999	0,97119	0,00053
73,92899	0,97287	0,00080
73,93799	0,97422	0,00083
73,94699	0,98241	0,00061
73,95599	0,98119	0,00085
73,96499	0,98431	0,00088
73,97399	0,98869	0,00083
73,98299	0,98575	0,00082
73,99199	0,98829	0,00101
74,00099	0,99086	0,00073
74,00999	0,99001	0,00077
74,01899	0,99109	0,00078
74,02799	0,98621	0,00082
74,03699	0,98417	0,00101
74,04599	0,98345	0,00083
74,05499	0,97838	0,00064
74,06399	0,97861	0,00085
74,07299	0,97626	0,00096
74,08199	0,97201	0,00061
74,09099	0,96911	0,00069
74,09999	0,96834	0,00063
74,10899	0,96653	0,00085
74,11799	0,96070	0,00078
74,12699	0,96468	0,00059
74,13599	0,95731	0,00086
74,14499	0,95740	0,00073
74,15399	0,95731	0,00071
74,16299	0,95030	0,00078
74,17199	0,95876	0,00086
74,18099	0,95441	0,00078
74,18999	0,95749	0,00094
74,19899	0,95853	0,00088
74,20799	0,95595	0,00079
74,21699	0,95803	0,00083
74,22599	0,95337	0,00100
74,23499	0,96124	0,00083
74,24399	0,95740	0,00068
74,25299	0,96468	0,00082
74,26199	0,96373	0,00079
74,27099	0,96409	0,00054
74,27999	0,97002	0,00080
74,28899	0,97160	0,00054
74,29799	0,96920	0,00096
74,30699	0,97300	0,00073
74,31599	0,97965	0,00097
74,32499	0,98173	0,00086
74,33399	0,98304	0,00096
74,34299	0,98702	0,00083
74,35199	0,98797	0,00072
74,36099	0,98508	0,00072
74,36999	0,98566	0,00078
74,37899	0,98774	0,00082
74,38799	0,98634	0,00084
74,39699	0,98480	0,00075
74,40599	0,98272	0,00073
74,41499	0,98209	0,00090
74,42399	0,97960	0,00077
74,43299	0,97734	0,00104
74,44199	0,97449	0,00095
74,45099	0,96848	0,00053
74,45999	0,96984	0,00093
74,46899	0,96825	0,00054
74,47799	0,95835	0,00077
74,48699	0,96179	0,00096
74,49599	0,95690	0,00075
74,50499	0,96165	0,00097
74,51399	0,95604	0,00099
74,52299	0,95934	0,00067
74,53199	0,95640	0,00086
74,54099	0,95288	0,00084
74,54999	0,95934	0,00078
74,55899	0,95224	0,00090
74,56799	0,95333	0,00091
74,57699	0,95631	0,00066
74,58599	0,95993	0,00053
74,59499	0,95541	0,00060
74,60399	0,96038	0,00110
74,61299	0,96296	0,00097
74,62199	0,96414	0,00069
74,63099	0,96269	0,00087
74,63999	0,96965	0,00072
74,64899	0,96522	0,00078
74,65799	0,96911	0,00080
74,66699	0,97409	0,00085
74,67599	0,97856	0,00068
74,68499	0,97178	0,00076
74,69399	0,98146	0,00072
74,70299	0,97956	0,00076
74,71199	0,97752	0,00105
74,72099	0,98177	0,00090
74,72999	0,98105	0,00126
74,73899	0,97404	0,00073
74,74799	0,97694	0,00088
74,75699	0,97861	0,00080
74,76599	0,97716	0,00092
74,77499	0,96893	0,00067
74,78399	0,97228	0,00069
74,79299	0,97445	0,00077
74,80199	0,96712	0,00105
74,81099	0,96581	0,00075
74,81999	0,96943	0,00080
74,82899	0,95848	0,00076
74,83799	0,96056	0,00115
74,84699	0,96165	0,00113
74,85599	0,95686	0,00068
74,86499	0,95279	0,00095
74,87399	0,95975	0,00092
74,88299	0,95324	0,00079
74,89199	0,95007	0,00071
74,90099	0,95369	0,00071
74,90999	0,95654	0,00100
74,91899	0,95116	0,00075
74,92799	0,95048	0,00072
74,93699	0,95781	0,00056
74,94599	0,95898	0,00073
74,95499	0,95527	0,00073
74,96399	0,96183	0,00107
74,97299	0,95898	0,00088
74,98199	0,95867	0,00097
74,99099	0,95989	0,00088
74,99999	0,95871	0,00075
75,00899	0,96839	0,00067
75,01799	0,96183	0,00081
75,02699	0,97088	0,00091
75,03599	0,97020	0,00073
75,04499	0,96875	0,00072
75,05399	0,97675	0,00109
75,06299	0,97657	0,00086
75,07199	0,97368	0,00079
75,08099	0,97576	0,00099
75,08999	0,97567	0,00076
75,09899	0,97798	0,00088
75,10799	0,97391	0,00078
75,11699	0,97743	0,00126
75,12599	0,97228	0,00069
75,13499	0,96699	0,00066
75,14399	0,97174	0,00059
75,15299	0,96427	0,00078
75,16199	0,96463	0,00073
75,17099	0,96830	0,00082
75,17999	0,96237	0,00091
75,18899	0,95640	0,00091
75,19799	0,95912	0,00081
75,20699	0,95989	0,00061
75,21599	0,95681	0,00096
75,22499	0,95346	0,00088
75,23399	0,95206	0,00080
75,24299	0,95337	0,00059
75,25199	0,94985	0,00067
75,26099	0,95337	0,00072
75,26999	0,95487	0,00081
75,27899	0,95003	0,00066
75,28799	0,95690	0,00075
75,29699	0,95188	0,00065
75,30599	0,95129	0,00083
75,31499	0,95659	0,00069
75,32399	0,95220	0,00067
75,33299	0,95600	0,00094
75,34199	0,95491	0,00073
75,35099	0,95500	0,00082
75,35999	0,95781	0,00048
75,36899	0,95862	0,00077
75,37799	0,96708	0,00113
75,38699	0,96115	0,00073
75,39599	0,96509	0,00050
75,40499	0,97255	0,00088
75,41399	0,97323	0,00099
75,42299	0,96834	0,00075
75,43199	0,97391	0,00088
75,44099	0,97680	0,00094
75,44999	0,96943	0,00085
75,45899	0,97164	0,00073
75,46799	0,97377	0,00069
75,47699	0,96785	0,00059
75,48599	0,96595	0,00085
75,49499	0,96861	0,00073
75,50399	0,96120	0,00064
75,51299	0,96070	0,00061
75,52199	0,96441	0,00078
75,53099	0,96170	0,00101
75,53999	0,95722	0,00053
75,54899	0,96038	0,00069
75,55799	0,95450	0,00072
75,56699	0,95387	0,00056
75,57599	0,95374	0,00039
75,58499	0,95251	0,00072
75,59399	0,95265	0,00088
75,60299	0,95089	0,00112
75,61199	0,95351	0,00045
75,62099	0,95080	0,00067
75,62999	0,95319	0,00059
75,63899	0,95527	0,00093
75,64799	0,95016	0,00046
75,65699	0,95093	0,00072
75,66599	0,95342	0,00101
75,67499	0,95428	0,00077
75,68399	0,95193	0,00094
75,69299	0,95351	0,00067
75,70199	0,95939	0,00107
75,71099	0,95536	0,00073
75,71999	0,95649	0,00054
75,72899	0,96409	0,00102
75,73799	0,96147	0,00099
75,74699	0,96115	0,00073
75,75599	0,96554	0,00102
75,76499	0,96681	0,00097
75,77399	0,96577	0,00067
75,78299	0,96934	0,00070
75,79199	0,97278	0,00068
75,80099	0,96631	0,00072
75,80999	0,96785	0,00072
75,81899	0,97481	0,00088
75,82799	0,96545	0,00071
75,83699	0,96748	0,00073
75,84599	0,96929	0,00078
75,85499	0,96106	0,00096
75,86399	0,95839	0,00085
75,87299	0,96233	0,00090
75,88199	0,96265	0,00078
75,89099	0,95763	0,00088
75,89999	0,95894	0,00088
75,90899	0,95763	0,00045
75,91799	0,95591	0,00087
75,92699	0,95455	0,00066
75,93599	0,95591	0,00066
75,94499	0,95324	0,00073
75,95399	0,95238	0,00085
75,96299	0,95423	0,00086
75,97199	0,95066	0,00082
75,98099	0,95034	0,00070
75,98999	0,95175	0,00097
75,99899	0,95297	0,00063
76,00799	0,95075	0,00088
76,01699	0,95125	0,00076
76,02599	0,95315	0,00094
76,03499	0,95129	0,00061
76,04399	0,95333	0,00095
76,05299	0,95573	0,00067
76,06199	0,95369	0,00099
76,07099	0,95631	0,00083
76,07999	0,95980	0,00101
76,08899	0,95785	0,00058
76,09799	0,95980	0,00078
76,10699	0,95993	0,00072
76,11599	0,96314	0,00059
76,12499	0,96246	0,00066
76,13399	0,96812	0,00077
76,14299	0,97074	0,00061
76,15199	0,96830	0,00059
76,16099	0,96848	0,00073
76,16999	0,97110	0,00088
76,17899	0,96549	0,00080
76,18799	0,96762	0,00075
76,19699	0,96685	0,00075
76,20599	0,96459	0,00063
76,21499	0,96138	0,00073
76,22399	0,96350	0,00093
76,23299	0,96142	0,00085
76,24199	0,95916	0,00085
76,25099	0,95907	0,00087
76,25999	0,96056	0,00065
76,26899	0,95541	0,00083
76,27799	0,95419	0,00075
76,28699	0,95618	0,00073
76,29599	0,95360	0,00060
76,30499	0,95387	0,00103
76,31399	0,95387	0,00094
76,32299	0,95297	0,00075
76,33199	0,95428	0,00077
76,34099	0,95333	0,00086
76,34999	0,95419	0,00103
76,35899	0,95324	0,00061
76,36799	0,95288	0,00113
76,37699	0,95328	0,00075
76,38599	0,95206	0,00099
76,39499	0,95423	0,00071
76,40399	0,95378	0,00054
76,41299	0,95469	0,00089
76,42199	0,95559	0,00102
76,43099	0,95758	0,00095
76,43999	0,95708	0,00097
76,44899	0,95853	0,00078
76,45799	0,95885	0,00066
76,46699	0,96418	0,00076
76,47599	0,96174	0,00060
76,48499	0,96432	0,00061
76,49399	0,96771	0,00084
76,50299	0,97106	0,00085
76,51199	0,96735	0,00073
76,52099	0,96816	0,00095
76,52999	0,96943	0,00069
76,53899	0,96852	0,00075
76,54799	0,96911	0,00063
76,55699	0,96662	0,00099
76,56599	0,96341	0,00083
76,57499	0,96233	0,00080
76,58399	0,96459	0,00056
76,59299	0,96183	0,00071
76,60199	0,96043	0,00059
76,61099	0,96165	0,00116
76,61999	0,95907	0,00082
76,62899	0,96093	0,00081
76,63799	0,95758	0,00057
76,64699	0,95975	0,00060
76,65599	0,95735	0,00056
76,66499	0,95903	0,00097
76,67399	0,95857	0,00063
76,68299	0,95794	0,00072
76,69199	0,95496	0,00094
76,70099	0,95722	0,00060
76,70999	0,95573	0,00093
76,71899	0,95392	0,00083
76,72799	0,95726	0,00092
76,73699	0,95812	0,00066
76,74599	0,95582	0,00078
76,75499	0,95663	0,00083
76,76399	0,95826	0,00094
76,77299	0,95989	0,00088
76,78199	0,95677	0,00085
76,79099	0,96020	0,00080
76,79999	0,95989	0,00061
76,80899	0,96287	0,00104
76,81799	0,96197	0,00100
76,82699	0,96160	0,00093
76,83599	0,96210	0,00099
76,84499	0,96536	0,00078
76,85399	0,96848	0,00097
76,86299	0,96776	0,00103
76,87199	0,96735	0,00061
76,88099	0,97083	0,00072
76,88999	0,96857	0,00059
76,89899	0,96595	0,00099
76,90799	0,96925	0,00080
76,91699	0,96830	0,00052
76,92599	0,96558	0,00066
76,93499	0,96468	0,00059
76,94399	0,96803	0,00097
76,95299	0,96414	0,00069
76,96199	0,96346	0,00078
76,97099	0,96441	0,00067
76,97999	0,96111	0,00085
76,98899	0,96228	0,00073
76,99799	0,96197	0,00087
77,00699	0,96165	0,00097
77,01599	0,96061	0,00052
77,02499	0,96287	0,00077
77,03399	0,96088	0,00087
77,04299	0,96115	0,00067
77,05199	0,96025	0,00053
77,06099	0,96142	0,00069
77,06999	0,96138	0,00117
77,07899	0,95753	0,00073
77,08799	0,96011	0,00079
77,09699	0,95952	0,00096
77,10599	0,95998	0,00072
77,11499	0,96052	0,00080
77,12399	0,95821	0,00065
77,13299	0,95817	0,00077
77,14199	0,96219	0,00085
77,15099	0,96034	0,00067
77,15999	0,96124	0,00073
77,16899	0,96504	0,00048
77,17799	0,96477	0,00061
77,18699	0,96536	0,00066
77,19599	0,97137	0,00069
77,20499	0,97106	0,00094
77,21399	0,97504	0,00065
77,22299	0,96984	0,00078
77,23199	0,97472	0,00061
77,24099	0,97250	0,00054
77,24999	0,97477	0,00090
77,25899	0,97463	0,00052
77,26799	0,97219	0,00043
77,27699	0,97020	0,00067
77,28599	0,97327	0,00066
77,29499	0,97183	0,00056
77,30399	0,96744	0,00094
77,31299	0,96821	0,00075
77,32199	0,96970	0,00078
77,33099	0,96762	0,00069
77,33999	0,96672	0,00090
77,34899	0,96776	0,00103
77,35799	0,96441	0,00053
77,36699	0,96753	0,00111
77,37599	0,96672	0,00090
77,38499	0,96482	0,00076
77,39399	0,96305	0,00073
77,40299	0,96708	0,00101
77,41199	0,96323	0,00075
77,42099	0,96369	0,00094
77,42999	0,96482	0,00057
77,43899	0,96391	0,00076
77,44799	0,96477	0,00073
77,45699	0,96274	0,00076
77,46599	0,96427	0,00066
77,47499	0,96337	0,00078
77,48399	0,96346	0,00078
77,49299	0,96346	0,00061
77,50199	0,96237	0,00086
77,51099	0,96287	0,00072
77,51999	0,96491	0,00080
77,52899	0,96418	0,00076
77,53799	0,96798	0,00093
77,54699	0,96744	0,00069
77,55599	0,96776	0,00056
77,56499	0,96812	0,00059
77,57399	0,97237	0,00082
77,58299	0,97445	0,00066
77,59199	0,97372	0,00087
77,60099	0,97513	0,00066
77,60999	0,97811	0,00071
77,61899	0,97368	0,00089
77,62799	0,97671	0,00072
77,63699	0,97653	0,00093
77,64599	0,97241	0,00066
77,65499	0,97472	0,00073
77,66399	0,97422	0,00088
77,67299	0,97119	0,00061
77,68199	0,97187	0,00061
77,69099	0,97164	0,00045
77,69999	0,97241	0,00044
77,70899	0,96952	0,00068
77,71799	0,96880	0,00078
77,72699	0,97047	0,00063
77,73599	0,96794	0,00073
77,74499	0,96988	0,00066
77,75399	0,96984	0,00078
77,76299	0,96622	0,00078
77,77199	0,96708	0,00083
77,78099	0,96821	0,00063
77,78999	0,96848	0,00061
77,79899	0,96504	0,00056
77,80799	0,96545	0,00071
77,81699	0,96635	0,00076
77,82599	0,96414	0,00056
77,83499	0,96730	0,00085
77,84399	0,96712	0,00073
77,85299	0,96662	0,00081
77,86199	0,96473	0,00063
77,87099	0,96757	0,00088
77,87999	0,96676	0,00082
77,88899	0,96536	0,00066
77,89799	0,96920	0,00077
77,90699	0,97060	0,00083
77,91599	0,97273	0,00080
77,92499	0,97268	0,00076
77,93399	0,97603	0,00072
77,94299	0,97671	0,00077
77,95199	0,97947	0,00084
77,96099	0,97997	0,00090
77,96999	0,97825	0,00043
77,97899	0,98083	0,00071
77,98799	0,97969	0,00078
77,99699	0,97780	0,00059
78,00599	0,97657	0,00095
78,01499	0,97852	0,00077
78,02399	0,97571	0,00073
78,03299	0,97621	0,00088
78,04199	0,97486	0,00080
78,05099	0,97463	0,00077
78,05999	0,97219	0,00066
78,06899	0,97119	0,00078
78,07799	0,97246	0,00101
78,08699	0,97192	0,00043
78,09599	0,97174	0,00066
78,10499	0,97137	0,00063
78,11399	0,97128	0,00066
78,12299	0,97106	0,00080
78,13199	0,96984	0,00073
78,14099	0,97092	0,00080
78,14999	0,96771	0,00073
78,15899	0,96816	0,00050
78,16799	0,96929	0,00073
78,17699	0,96848	0,00093
78,18599	0,96590	0,00061
78,19499	0,96866	0,00094
78,20399	0,96825	0,00068
78,21299	0,96694	0,00122
78,22199	0,96943	0,00085
78,23099	0,96789	0,00072
78,23999	0,96997	0,00071
78,24899	0,96785	0,00059
78,25799	0,96947	0,00077
78,26699	0,96880	0,00072
78,27599	0,97201	0,00053
78,28499	0,97300	0,00083
78,29399	0,97268	0,00076
78,30299	0,97594	0,00065
78,31199	0,97780	0,00059
78,32099	0,97852	0,00052
78,32999	0,97834	0,00053
78,33899	0,98205	0,00078
78,34799	0,98001	0,00054
78,35699	0,98263	0,00081
78,36599	0,97947	0,00073
78,37499	0,97893	0,00060
78,38399	0,97793	0,00054
78,39299	0,97856	0,00068
78,40199	0,97838	0,00057
78,41099	0,97703	0,00078
78,41999	0,97734	0,00066
78,42899	0,97653	0,00088
78,43799	0,97445	0,00087
78,44699	0,97164	0,00061
78,45599	0,97427	0,00088
78,46499	0,97377	0,00075
78,47399	0,97160	0,00073
78,48299	0,97241	0,00053
78,49199	0,97210	0,00053
78,50099	0,97006	0,00084
78,50999	0,97160	0,00067
78,51899	0,97196	0,00056
78,52799	0,97169	0,00072
78,53699	0,96956	0,00069
78,54599	0,97033	0,00085
78,55499	0,96916	0,00061
78,56399	0,96789	0,00066
78,57299	0,97042	0,00068
78,58199	0,96866	0,00063
78,59099	0,96812	0,00082
78,59999	0,96979	0,00083
78,60899	0,96866	0,00069
78,61799	0,96947	0,00077
78,62699	0,97002	0,00056
78,63599	0,97029	0,00073
78,64499	0,97033	0,00080
78,65399	0,97282	0,00059
78,66299	0,97250	0,00073
78,67199	0,97562	0,00078
78,68099	0,97599	0,00092
78,68999	0,97951	0,00090
78,69899	0,97893	0,00053
78,70799	0,98277	0,00087
78,71699	0,98300	0,00075
78,72599	0,98123	0,00087
78,73499	0,98173	0,00086
78,74399	0,98164	0,00097
78,75299	0,97997	0,00103
78,76199	0,97983	0,00044
78,77099	0,97906	0,00063
78,77999	0,97784	0,00053
78,78899	0,97635	0,00075
78,79799	0,97798	0,00067
78,80699	0,97571	0,00067
78,81599	0,97571	0,00053
78,82499	0,97463	0,00087
78,83399	0,97413	0,00071
78,84299	0,97336	0,00093
78,85199	0,97282	0,00082
78,86099	0,97237	0,00059
78,86999	0,97060	0,00101
78,87899	0,97169	0,00053
78,88799	0,97137	0,00056
78,89699	0,96970	0,00078
78,90599	0,96965	0,00100
78,91499	0,97002	0,00090
78,92399	0,96929	0,00078
78,93299	0,96902	0,00087
78,94199	0,96965	0,00077
78,95099	0,97002	0,00069
78,95999	0,96821	0,00056
78,96899	0,96744	0,00063
78,97799	0,96984	0,00083
78,98699	0,96789	0,00072
78,99599	0,96866	0,00056
79,00499	0,97101	0,00087
79,01399	0,96965	0,00087
79,02299	0,97115	0,00076
79,03199	0,97246	0,00061
79,04099	0,97237	0,00087
79,04999	0,97309	0,00077
79,05899	0,97685	0,00081
79,06799	0,97626	0,00082
79,07699	0,98006	0,00077
79,08599	0,98060	0,00073
79,09499	0,98250	0,00067
79,10399	0,98263	0,00071
79,11299	0,98426	0,00073
79,12199	0,98318	0,00050
79,13099	0,98286	0,00061
79,13999	0,97933	0,00061
79,14899	0,98064	0,00093
79,15799	0,97929	0,00076
79,16699	0,97811	0,00076
79,17599	0,97748	0,00086
79,18499	0,97666	0,00075
79,19399	0,97553	0,00052
79,20299	0,97436	0,00073
79,21199	0,97436	0,00078
79,22099	0,97192	0,00052
79,22999	0,97228	0,00069
79,23899	0,97237	0,00082
79,24799	0,97119	0,00083
79,25699	0,96993	0,00077
79,26599	0,97088	0,00091
79,27499	0,97033	0,00056
79,28399	0,97024	0,00081
79,29299	0,97060	0,00044
79,30199	0,96965	0,00082
79,31099	0,96920	0,00082
79,31999	0,97011	0,00100
79,32899	0,96984	0,00045
79,33799	0,96961	0,00076
79,34699	0,96893	0,00073
79,35599	0,96916	0,00084
79,36499	0,96780	0,00071
79,37399	0,96816	0,00076
79,38299	0,96898	0,00078
79,39199	0,96907	0,00058
79,40099	0,96816	0,00065
79,40999	0,96902	0,00082
79,41899	0,97119	0,00061
79,42799	0,97088	0,00076
79,43699	0,97422	0,00060
79,44599	0,97675	0,00061
79,45499	0,97694	0,00078
79,46399	0,98024	0,00093
79,47299	0,98254	0,00060
79,48199	0,98182	0,00102
79,49099	0,98182	0,00084
79,49999	0,98345	0,00066
79,50899	0,98232	0,00072
79,51799	0,98105	0,00088
79,52699	0,97988	0,00087
79,53599	0,97947	0,00079
79,54499	0,97838	0,00057
79,55399	0,97712	0,00097
79,56299	0,97626	0,00066
79,57199	0,97427	0,00073
79,58099	0,97499	0,00063
79,58999	0,97323	0,00095
79,59899	0,97232	0,00071
79,60799	0,97142	0,00065
79,61699	0,97183	0,00075
79,62599	0,96934	0,00081
79,63499	0,97047	0,00080
79,64399	0,97038	0,00072
79,65299	0,96920	0,00072
79,66199	0,96880	0,00083
79,67099	0,96875	0,00059
79,67999	0,96821	0,00085
79,68899	0,96803	0,00061
79,69799	0,96712	0,00083
79,70699	0,96753	0,00064
79,71599	0,96635	0,00099
79,72499	0,96785	0,00082
79,73399	0,96703	0,00073
79,74299	0,96563	0,00090
79,75199	0,96721	0,00115
79,76099	0,96789	0,00078
79,76999	0,96717	0,00097
79,77899	0,96938	0,00073
79,78799	0,96929	0,00097
79,79699	0,96997	0,00086
79,80599	0,97124	0,00069
79,81499	0,97318	0,00107
79,82399	0,97535	0,00059
79,83299	0,97590	0,00085
79,84199	0,97974	0,00073
79,85099	0,98182	0,00079
79,85999	0,98064	0,00083
79,86899	0,98295	0,00061
79,87799	0,98327	0,00066
79,88699	0,98073	0,00097
79,89599	0,98218	0,00093
79,90499	0,98064	0,00097
79,91399	0,97960	0,00066
79,92299	0,97712	0,00078
79,93199	0,97571	0,00078
79,94099	0,97391	0,00073
79,94999	0,97382	0,00088
79,95899	0,97241	0,00078
79,96799	0,97011	0,00077
79,97699	0,96970	0,00097
79,98599	0,96961	0,00095
79,99499	0,96807	0,00060
80,00399	0,96644	0,00073
80,01299	0,96599	0,00076
80,02199	0,96590	0,00054
80,03099	0,96500	0,00068
80,03999	0,96581	0,00080
80,04899	0,96509	0,00058
80,05799	0,96296	0,00101
80,06699	0,96427	0,00097
80,07599	0,96522	0,00073
80,08499	0,96373	0,00079
80,09399	0,96396	0,00073
80,10299	0,96558	0,00066
80,11199	0,96445	0,00066
80,12099	0,96672	0,00080
80,12999	0,96563	0,00063
80,13899	0,96653	0,00085
80,14799	0,96536	0,00088
80,15699	0,96726	0,00086
80,16599	0,96938	0,00093
80,17499	0,96911	0,00090
80,18399	0,97056	0,00072
80,19299	0,97305	0,00069
80,20199	0,97499	0,00056
80,21099	0,97716	0,00066
80,21999	0,98001	0,00084
80,22899	0,98141	0,00072
80,23799	0,98033	0,00082
80,24699	0,98227	0,00081
80,25599	0,98300	0,00056
80,26499	0,98006	0,00087
80,27399	0,97893	0,00078
80,28299	0,97906	0,00080
80,29199	0,97662	0,00073
80,30099	0,97540	0,00095
80,30999	0,97477	0,00040
80,31899	0,97223	0,00061
80,32799	0,97092	0,00080
80,33699	0,97164	0,00073
80,34599	0,96812	0,00072
80,35499	0,96934	0,00064
80,36399	0,96563	0,00080
80,37299	0,96495	0,00059
80,38199	0,96527	0,00078
80,39099	0,96409	0,00079
80,39999	0,96310	0,00069
80,40899	0,96066	0,00078
80,41799	0,96174	0,00101
80,42699	0,96179	0,00082
80,43599	0,96210	0,00070
80,44499	0,96174	0,00078
80,45399	0,96215	0,00078
80,46299	0,96170	0,00083
80,47199	0,96002	0,00065
80,48099	0,96255	0,00078
80,48999	0,96405	0,00072
80,49899	0,96147	0,00071
80,50799	0,96414	0,00069
80,51699	0,96509	0,00058
80,52599	0,96436	0,00061
80,53499	0,96753	0,00070
80,54399	0,96898	0,00078
80,55299	0,96848	0,00073
80,56199	0,97259	0,00083
80,57099	0,97458	0,00061
80,57999	0,97739	0,00080
80,58899	0,97974	0,00078
80,59799	0,98218	0,00084
80,60699	0,98390	0,00080
80,61599	0,98309	0,00068
80,62499	0,98449	0,00090
80,63399	0,98327	0,00060
80,64299	0,98078	0,00082
80,65199	0,97879	0,00067
80,66099	0,97852	0,00077
80,66999	0,97517	0,00073
80,67899	0,97214	0,00063
80,68799	0,97183	0,00069
80,69699	0,96997	0,00081
80,70599	0,96626	0,00066
80,71499	0,96653	0,00069
80,72399	0,96568	0,00067
80,73299	0,96246	0,00083
80,74199	0,96011	0,00068
80,75099	0,96138	0,00097
80,75999	0,95989	0,00061
80,76899	0,95867	0,00073
80,77799	0,95907	0,00077
80,78699	0,95812	0,00053
80,79599	0,95586	0,00080
80,80499	0,95640	0,00095
80,81399	0,95826	0,00069
80,82299	0,95554	0,00085
80,83199	0,95758	0,00070
80,84099	0,95749	0,00056
80,84999	0,95668	0,00081
80,85899	0,95758	0,00050
80,86799	0,95903	0,00078
80,87699	0,95989	0,00093
80,88599	0,96002	0,00095
80,89499	0,96251	0,00078
80,90399	0,96305	0,00073
80,91299	0,96265	0,00083
80,92199	0,96590	0,00109
80,93099	0,96739	0,00082
80,93999	0,96843	0,00064
80,94899	0,97119	0,00073
80,95799	0,97508	0,00082
80,96699	0,97675	0,00073
80,97599	0,98042	0,00099
80,98499	0,98187	0,00082
80,99399	0,98123	0,00082
81,00299	0,98114	0,00088
81,01199	0,97838	0,00090
81,02099	0,97852	0,00087
81,02999	0,97431	0,00078
81,03899	0,97400	0,00092
81,04799	0,97246	0,00061
81,05699	0,96830	0,00066
81,06599	0,96762	0,00107
81,07499	0,96445	0,00060
81,08399	0,96255	0,00078
81,09299	0,95989	0,00083
81,10199	0,95839	0,00099
81,11099	0,95735	0,00056
81,11999	0,95419	0,00080
81,12899	0,95233	0,00093
81,13799	0,95021	0,00059
81,14699	0,94962	0,00061
81,15599	0,94899	0,00073
81,16499	0,94867	0,00066
81,17399	0,94740	0,00085
81,18299	0,94804	0,00083
81,19199	0,94786	0,00080
81,20099	0,94813	0,00088
81,20999	0,94876	0,00075
81,21899	0,94894	0,00078
81,22799	0,94885	0,00077
81,23699	0,95098	0,00091
81,24599	0,95270	0,00083
81,25499	0,95414	0,00093
81,26399	0,95640	0,00095
81,27299	0,95695	0,00071
81,28199	0,95903	0,00072
81,29099	0,95880	0,00096
81,29999	0,96341	0,00093
81,30899	0,96531	0,00097
81,31799	0,96595	0,00099
81,32699	0,97088	0,00065
81,33599	0,97341	0,00078
81,34499	0,97477	0,00081
81,35399	0,97974	0,00083
81,36299	0,97988	0,00082
81,37199	0,98019	0,00090
81,38099	0,97581	0,00104
81,38999	0,97576	0,00080
81,39899	0,97603	0,00078
81,40799	0,97124	0,00090
81,41699	0,96821	0,00085
81,42599	0,96789	0,00072
81,43499	0,96224	0,00092
81,44399	0,95934	0,00078
81,45299	0,95989	0,00073
81,46199	0,95582	0,00101
81,47099	0,95301	0,00083
81,47999	0,95111	0,00077
81,48899	0,94912	0,00077
81,49799	0,94750	0,00092
81,50699	0,94650	0,00085
81,51599	0,94487	0,00083
81,52499	0,94080	0,00078
81,53399	0,94225	0,00073
81,54299	0,94184	0,00066
81,55199	0,94134	0,00067
81,56099	0,94067	0,00081
81,56999	0,94216	0,00073
81,57899	0,94134	0,00088
81,58799	0,94306	0,00067
81,59699	0,94374	0,00081
81,60599	0,94324	0,00077
81,61499	0,94587	0,00073
81,62399	0,94609	0,00095
81,63299	0,95093	0,00082
81,64199	0,94908	0,00066
81,65099	0,95197	0,00089
81,65999	0,95450	0,00119
81,66899	0,95374	0,00080
81,67799	0,95722	0,00088
81,68699	0,96043	0,00082
81,69599	0,96848	0,00083
81,70499	0,96563	0,00085
81,71399	0,96965	0,00108
81,72299	0,97504	0,00076
81,73199	0,97382	0,00097
81,74099	0,97694	0,00088
81,74999	0,97802	0,00088
81,75899	0,97544	0,00080
81,76799	0,97486	0,00069
81,77699	0,97544	0,00094
81,78599	0,97522	0,00083
81,79499	0,96861	0,00036
81,80399	0,96726	0,00081
81,81299	0,96025	0,00101
81,82199	0,96228	0,00102
81,83099	0,95672	0,00083
81,83999	0,95224	0,00085
81,84899	0,94867	0,00096
81,85799	0,94958	0,00112
81,86699	0,94437	0,00083
81,87599	0,94171	0,00053
81,88499	0,94193	0,00086
81,89399	0,93845	0,00087
81,90299	0,93727	0,00073
81,91199	0,93678	0,00064
81,92099	0,93560	0,00041
81,92999	0,93479	0,00054
81,93899	0,93610	0,00056
81,94799	0,93506	0,00069
81,95699	0,93465	0,00072
81,96599	0,93723	0,00061
81,97499	0,93746	0,00099
81,98399	0,93746	0,00069
81,99299	0,94080	0,00088
82,00199	0,94198	0,00063
82,01099	0,94302	0,00069
82,01999	0,94700	0,00071
82,02899	0,94849	0,00097
82,03799	0,94930	0,00066
82,04699	0,95283	0,00069
82,05599	0,95559	0,00061
82,06499	0,96002	0,00076
82,07399	0,95912	0,00104
82,08299	0,96292	0,00080
82,09199	0,96432	0,00083
82,10099	0,96911	0,00075
82,10999	0,97454	0,00080
82,11899	0,97635	0,00080
82,12799	0,97454	0,00069
82,13699	0,97906	0,00048
82,14599	0,97852	0,00052
82,15499	0,97219	0,00043
82,16399	0,97499	0,00048
82,17299	0,96988	0,00083
82,18199	0,96757	0,00073
82,19099	0,96414	0,00094
82,19999	0,96246	0,00088
82,20899	0,95582	0,00045
82,21799	0,95383	0,00087
82,22699	0,95093	0,00082
82,23599	0,94560	0,00056
82,24499	0,94238	0,00061
82,25399	0,94184	0,00060
82,26299	0,93791	0,00090
82,27199	0,93637	0,00073
82,28099	0,93465	0,00066
82,28999	0,93325	0,00094
82,29899	0,93054	0,00075
82,30799	0,93103	0,00072
82,31699	0,93013	0,00087
82,32599	0,92800	0,00065
82,33499	0,92850	0,00059
82,34399	0,93036	0,00090
82,35299	0,92895	0,00077
82,36199	0,93022	0,00080
82,37099	0,93348	0,00066
82,37999	0,93433	0,00058
82,38899	0,93678	0,00070
82,39799	0,94026	0,00082
82,40699	0,94329	0,00054
82,41599	0,94451	0,00073
82,42499	0,94750	0,00082
82,43399	0,95039	0,00093
82,44299	0,95170	0,00078
82,45199	0,95677	0,00075
82,46099	0,95835	0,00066
82,46999	0,96029	0,00064
82,47899	0,96572	0,00090
82,48799	0,97083	0,00087
82,49699	0,97164	0,00067
82,50599	0,97608	0,00083
82,51499	0,97879	0,00073
82,52399	0,97974	0,00088
82,53299	0,97409	0,00063
82,54199	0,97694	0,00083
82,55099	0,97368	0,00079
82,55999	0,96726	0,00076
82,56899	0,96816	0,00081
82,57799	0,96310	0,00056
82,58699	0,96016	0,00096
82,59599	0,95740	0,00054
82,60499	0,95392	0,00067
82,61399	0,94876	0,00080
82,62299	0,94560	0,00063
82,63199	0,94089	0,00093
82,64099	0,93524	0,00086
82,64999	0,93230	0,00067
82,65899	0,92981	0,00091
82,66799	0,92719	0,00066
82,67699	0,92606	0,00082
82,68599	0,92452	0,00073
82,69499	0,92208	0,00085
82,70399	0,92095	0,00067
82,71299	0,92022	0,00091
82,72199	0,92194	0,00088
82,73099	0,92117	0,00075
82,73999	0,92158	0,00068
82,74899	0,92484	0,00054
82,75799	0,92552	0,00073
82,76699	0,92755	0,00061
82,77599	0,93140	0,00078
82,78499	0,93402	0,00073
82,79399	0,93574	0,00072
82,80299	0,94012	0,00071
82,81199	0,94225	0,00083
82,82099	0,94641	0,00066
82,82999	0,94709	0,00078
82,83899	0,95129	0,00097
82,84799	0,95401	0,00067
82,85699	0,95848	0,00070
82,86599	0,96228	0,00089
82,87499	0,96690	0,00086
82,88399	0,96979	0,00083
82,89299	0,97436	0,00073
82,90199	0,97513	0,00066
82,91099	0,97508	0,00052
82,91999	0,97969	0,00061
82,92899	0,97852	0,00066
82,93799	0,97445	0,00100
82,94699	0,97332	0,00101
82,95599	0,96730	0,00056
82,96499	0,96029	0,00070
82,97399	0,95844	0,00078
82,98299	0,95487	0,00076
82,99199	0,94926	0,00054
83,00099	0,94478	0,00077
83,00999	0,94121	0,00080
83,01899	0,93528	0,00052
83,02799	0,93194	0,00104
83,03699	0,92855	0,00049
83,04599	0,92466	0,00066
83,05499	0,92117	0,00075
83,06399	0,91760	0,00054
83,07299	0,91489	0,00105
83,08199	0,91177	0,00072
83,09099	0,91082	0,00065
83,09999	0,91132	0,00077
83,10899	0,90955	0,00075
83,11799	0,91037	0,00068
83,12699	0,91240	0,00061
83,13599	0,91236	0,00095
83,14499	0,91502	0,00073
83,15399	0,91846	0,00090
83,16299	0,91986	0,00058
83,17199	0,92312	0,00063
83,18099	0,92882	0,00068
83,18999	0,93189	0,00083
83,19899	0,93524	0,00086
83,20799	0,93850	0,00075
83,21699	0,94130	0,00076
83,22599	0,94483	0,00075
83,23499	0,94912	0,00059
83,24399	0,95346	0,00067
83,25299	0,95631	0,00066
83,26199	0,95898	0,00078
83,27099	0,96359	0,00096
83,27999	0,96531	0,00053
83,28899	0,97119	0,00067
83,29799	0,97454	0,00048
83,30699	0,97495	0,00073
83,31599	0,97657	0,00095
83,32499	0,97671	0,00096
83,33399	0,97454	0,00099
83,34299	0,96988	0,00088
83,35199	0,96735	0,00093
83,36099	0,96255	0,00101
83,36999	0,95631	0,00072
83,37899	0,95342	0,00072
83,38799	0,94695	0,00063
83,39699	0,94012	0,00081
83,40599	0,93813	0,00101
83,41499	0,93280	0,00092
83,42399	0,92674	0,00080
83,43299	0,92312	0,00075
83,44199	0,91842	0,00071
83,45099	0,91222	0,00066
83,45999	0,90675	0,00068
83,46899	0,90349	0,00068
83,47799	0,89721	0,00069
83,48699	0,89359	0,00056
83,49599	0,89309	0,00086
83,50499	0,88893	0,00069
83,51399	0,88730	0,00076
83,52299	0,89092	0,00058
83,53199	0,89169	0,00072
83,54099	0,89350	0,00077
83,54999	0,89693	0,00083
83,55899	0,90019	0,00053
83,56799	0,90589	0,00066
83,57699	0,91218	0,00079
83,58599	0,91864	0,00067
83,59499	0,92145	0,00083
83,60399	0,92859	0,00078
83,61299	0,93239	0,00082
83,62199	0,93628	0,00088
83,63099	0,94112	0,00068
83,63999	0,94555	0,00071
83,64899	0,95025	0,00063
83,65799	0,95270	0,00072
83,66699	0,95785	0,00071
83,67599	0,96233	0,00090
83,68499	0,96378	0,00096
83,69399	0,96965	0,00096
83,70299	0,97449	0,00065
83,71199	0,97820	0,00068
83,72099	0,97861	0,00048
83,72999	0,97712	0,00066
83,73899	0,97418	0,00082
83,74799	0,97187	0,00102
83,75699	0,96871	0,00091
83,76599	0,96445	0,00060
83,77499	0,95957	0,00084
83,78399	0,95387	0,00063
83,79299	0,94691	0,00089
83,80199	0,94216	0,00061
83,81099	0,93809	0,00078
83,81999	0,93008	0,00083
83,82899	0,92466	0,00060
83,83799	0,92154	0,00052
83,84699	0,91453	0,00078
83,85599	0,90268	0,00058
83,86499	0,89883	0,00101
83,87399	0,89060	0,00083
83,88299	0,88224	0,00065
83,89199	0,87731	0,00069
83,90099	0,87147	0,00068
83,90999	0,86501	0,00096
83,91899	0,86496	0,00078
83,92799	0,86406	0,00066
83,93699	0,86320	0,00077
83,94599	0,86853	0,00088
83,95499	0,87369	0,00080
83,96399	0,87939	0,00053
83,97299	0,88549	0,00058
83,98199	0,89427	0,00095
83,99099	0,89911	0,00087
83,99999	0,90951	0,00059
84,00899	0,91615	0,00089
84,01799	0,92050	0,00050
84,02699	0,92610	0,00068
84,03599	0,93456	0,00078
84,04499	0,93863	0,00083
84,05399	0,94189	0,00043
84,06299	0,94704	0,00066
84,07199	0,95120	0,00067
84,08099	0,95654	0,00059
84,08999	0,96079	0,00061
84,09899	0,96482	0,00070
84,10799	0,96699	0,00088
84,11699	0,97305	0,00090
84,12599	0,97757	0,00080
84,13499	0,97666	0,00080
84,14399	0,97802	0,00072
84,15299	0,97689	0,00066
84,16199	0,97372	0,00059
84,17099	0,96789	0,00092
84,17999	0,96531	0,00061
84,18899	0,95952	0,00077
84,19799	0,95356	0,00067
84,20699	0,94813	0,00083
84,21599	0,94116	0,00072
84,22499	0,93411	0,00045
84,23399	0,92891	0,00058
84,24299	0,92063	0,00072
84,25199	0,91507	0,00076
84,26099	0,90883	0,00063
84,26999	0,90223	0,00079
84,27899	0,89440	0,00066
84,28799	0,88581	0,00096
84,29699	0,87649	0,00072
84,30599	0,86985	0,00050
84,31499	0,85985	0,00053
84,32399	0,85691	0,00071
84,33299	0,85121	0,00112
84,34199	0,84936	0,00072
84,35099	0,85094	0,00090
84,35999	0,85040	0,00088
84,36899	0,85999	0,00069
84,37799	0,86609	0,00087
84,38699	0,87337	0,00080
84,39599	0,88133	0,00081
84,40499	0,88965	0,00094
84,41399	0,89598	0,00085
84,42299	0,90177	0,00081
84,43199	0,90910	0,00083
84,44099	0,91597	0,00076
84,44999	0,92154	0,00082
84,45899	0,92796	0,00075
84,46799	0,93501	0,00061
84,47699	0,93945	0,00045
84,48599	0,94433	0,00092
84,49499	0,95134	0,00069
84,50399	0,95695	0,00065
84,51299	0,95871	0,00056
84,52199	0,96558	0,00066
84,53099	0,96956	0,00080
84,53999	0,97309	0,00072
84,54899	0,97761	0,00066
84,55799	0,97902	0,00111
84,56699	0,97770	0,00080
84,57599	0,97553	0,00043
84,58499	0,96961	0,00091
84,59399	0,96545	0,00076
84,60299	0,95962	0,00094
84,61199	0,95423	0,00058
84,62099	0,94623	0,00061
84,62999	0,93940	0,00069
84,63899	0,93311	0,00083
84,64799	0,92439	0,00076
84,65699	0,91688	0,00070
84,66599	0,90797	0,00092
84,67499	0,89517	0,00081
84,68399	0,88111	0,00067
84,69299	0,86265	0,00061
84,70199	0,84488	0,00088
84,71099	0,82173	0,00079
84,71999	0,79102	0,00087
84,72899	0,72422	0,00174
84,73799	0,44560	0,00993
84,74699	0,35095	0,00992
84,75599	0,29699	0,00805
84,76499	0,27176	0,00478
84,77399	0,29880	0,00939
84,78299	0,35565	0,00947
84,79199	0,55812	0,00904
84,80099	0,73901	0,00152
84,80999	0,80160	0,00061
84,81899	0,82856	0,00072
84,82799	0,85248	0,00079
84,83699	0,87202	0,00072
84,84599	0,88418	0,00077
84,85499	0,89816	0,00071
84,86399	0,90991	0,00081
84,87299	0,92217	0,00082
84,88199	0,92714	0,00066
84,89099	0,93506	0,00080
84,89999	0,94315	0,00061
84,90899	0,94578	0,00053
84,91799	0,95188	0,00065
84,92699	0,95903	0,00066
84,93599	0,96337	0,00060
84,94499	0,96852	0,00069
84,95399	0,97372	0,00092
84,96299	0,97508	0,00066
84,97199	0,97784	0,00053
84,98099	0,97874	0,00072
84,98999	0,97395	0,00063
84,99899	0,96970	0,00092
85,00799	0,96495	0,00066
85,01699	0,95740	0,00061
85,02599	0,94994	0,00067
85,03499	0,94166	0,00060
85,04399	0,93112	0,00075
85,05299	0,92488	0,00087
85,06199	0,91502	0,00078
85,07099	0,89707	0,00094
85,07999	0,88233	0,00079
85,08899	0,86207	0,00066
85,09799	0,83231	0,00067
85,10699	0,78139	0,00084
85,11599	0,58751	0,00480
85,12499	0,14224	0,00428
85,13399	0,00506	0,00465
85,14299	0,00578	0,00492
85,15199	0,00103	0,00483
85,16099	0,00393	0,00385
85,16999	0,00515	0,00428
85,17899	0,00596	0,00495
85,18799	0,00655	0,00516
85,19699	0,00727	0,00554
85,20599	0,01089	0,00438
85,21499	0,01247	0,00658
85,22399	0,09534	0,00636
85,23299	0,51814	0,00615
85,24199	0,79364	0,00099
85,25099	0,84054	0,00083
85,25999	0,86487	0,00083
85,26899	0,88757	0,00092
85,27799	0,90164	0,00092
85,28699	0,91625	0,00071
85,29599	0,92511	0,00039
85,30499	0,93275	0,00101
85,31399	0,94107	0,00056
85,32299	0,94849	0,00093
85,33199	0,95405	0,00063
85,34099	0,95857	0,00080
85,34999	0,96676	0,00082
85,35899	0,97042	0,00068
85,36799	0,97689	0,00077
85,37699	0,97933	0,00067
85,38599	0,97874	0,00060
85,39499	0,97477	0,00050
85,40399	0,97395	0,00075
85,41299	0,96712	0,00083
85,42199	0,96242	0,00096
85,43099	0,95496	0,00075
85,43999	0,94523	0,00077
85,44899	0,93605	0,00054
85,45799	0,92439	0,00081
85,46699	0,91412	0,00053
85,47599	0,90354	0,00063
85,48499	0,88599	0,00059
85,49399	0,86605	0,00079
85,50299	0,82865	0,00067
85,51199	0,76909	0,00088
85,52099	0,43642	0,00781
85,52999	0,10981	0,01025
85,53899	0,01281	0,00974
85,54799	0,01217	0,00998
85,55699	0,01159	0,00976
85,56599	0,01231	0,00941
85,57499	0,01226	0,00933
85,58399	0,01136	0,00975
85,59299	0,02606	0,00598
85,60199	0,02579	0,00606
85,61099	0,02619	0,00552
85,61999	0,02642	0,00574
85,62899	0,02687	0,00566
85,63799	0,05581	0,00699
85,64699	0,30699	0,00705
85,65599	0,78103	0,00061
85,66499	0,83561	0,00096
85,67399	0,86424	0,00079
85,68299	0,88432	0,00086
85,69199	0,90146	0,00067
85,70099	0,91208	0,00081
85,70999	0,92099	0,00067
85,71899	0,93144	0,00075
85,72799	0,93999	0,00073
85,73699	0,94555	0,00091
85,74599	0,95450	0,00078
85,75499	0,96210	0,00081
85,76399	0,96803	0,00067
85,77299	0,97142	0,00058
85,78199	0,97662	0,00067
85,79099	0,98006	0,00082
85,79999	0,97694	0,00078
85,80899	0,97445	0,00072
85,81799	0,97033	0,00080
85,82699	0,96179	0,00108
85,83599	0,95790	0,00077
85,84499	0,94817	0,00129
85,85399	0,93637	0,00053
85,86299	0,92520	0,00073
85,87199	0,91634	0,00072
85,88099	0,89870	0,00080
85,88999	0,87771	0,00050
85,89899	0,84850	0,00083
85,90799	0,79066	0,00078
85,91699	0,38025	0,00515
85,92599	0,04682	0,00850
85,93499	0,04786	0,00578
85,94399	0,04858	0,00643
85,95299	0,04885	0,00660
85,96199	0,04921	0,00726
85,97099	0,04546	0,00874
85,97999	0,04591	0,00974
85,98899	0,04568	0,00894
85,99799	0,04618	0,00918
86,00699	0,04605	0,00920
86,01599	0,04627	0,00842
86,02499	0,04677	0,00855
86,03399	0,04727	0,00868
86,04299	0,04790	0,00847
86,05199	0,04844	0,00813
86,06099	0,04953	0,00722
86,06999	0,04939	0,00703
86,07899	0,04944	0,00706
86,08799	0,72029	0,00195
86,09699	0,82141	0,00093
86,10599	0,86220	0,00073
86,11499	0,89110	0,00073
86,12399	0,90684	0,00069
86,13299	0,92366	0,00083
86,14199	0,93085	0,00078
86,15099	0,93859	0,00090
86,15999	0,94908	0,00066
86,16899	0,95699	0,00072
86,17799	0,96084	0,00066
86,18699	0,97024	0,00076
86,19599	0,97571	0,00083
86,20499	0,97648	0,00094
86,21399	0,97685	0,00076
86,22299	0,97648	0,00063
86,23199	0,97137	0,00056
86,24099	0,96545	0,00050
86,24999	0,95645	0,00056
86,25899	0,94754	0,00090
86,26799	0,93655	0,00063
86,27699	0,92628	0,00083
86,28599	0,91186	0,00067
86,29499	0,88491	0,00052
86,30399	0,85931	0,00052
86,31299	0,78057	0,00081
86,32199	0,25335	0,00688
86,33099	0,03040	0,00706
86,33999	0,02773	0,00787
86,34899	0,02692	0,00901
86,35799	0,01235	0,00688
86,36699	0,01091	0,00636
86,37599	0,01027	0,00641
86,38499	0,00996	0,00592
86,39399	0,00951	0,00567
86,40299	0,00896	0,00550
86,41199	0,00847	0,00555
86,42099	0,00720	0,00560
86,42999	0,00562	0,00582
86,43899	0,00476	0,00553
86,44799	0,00358	0,00564
86,45699	0,00295	0,00497
86,46599	0,00222	0,00536
86,47499	0,00141	0,00425
86,48399	0,00901	0,00526
86,49299	0,00082	0,00427
86,50199	0,00014	0,00460
86,51099	0,00580	0,00582
86,51999	0,67615	0,00245
86,52899	0,83882	0,00065
86,53799	0,87713	0,00067
86,54699	0,89920	0,00078
86,55599	0,91484	0,00103
86,56499	0,92846	0,00046
86,57399	0,93913	0,00060
86,58299	0,94677	0,00073
86,59199	0,95690	0,00080
86,60099	0,96255	0,00093
86,60999	0,96608	0,00060
86,61899	0,97454	0,00075
86,62799	0,97766	0,00068
86,63699	0,97603	0,00083
86,64599	0,97630	0,00099
86,65499	0,97051	0,00076
86,66399	0,96265	0,00078
86,67299	0,95102	0,00075
86,68199	0,94442	0,00097
86,69099	0,93126	0,00069
86,69999	0,91756	0,00056
86,70899	0,90521	0,00080
86,71799	0,88002	0,00117
86,72699	0,84117	0,00065
86,73599	0,72970	0,00165
86,74499	0,01057	0,00865
86,75399	0,00881	0,00925
86,76299	0,00809	0,00974
86,77199	0,00338	0,00719
86,78099	0,00042	0,00377
86,78999	0,00137	0,00304
86,79899	0,00078	0,00255
86,80799	0,00250	0,00473
86,81699	0,00516	0,00763
86,82599	0,00887	0,00828
86,83499	0,01172	0,00996
86,84399	0,01561	0,00979
86,85299	0,02230	0,00731
86,86199	0,02493	0,00627
86,87099	0,01538	0,00972
86,87999	0,02113	0,00837
86,88899	0,02520	0,00592
86,89799	0,02628	0,00573
86,90699	0,02750	0,00531
86,91599	0,02886	0,00512
86,92499	0,03072	0,00595
86,93399	0,03659	0,00494
86,94299	0,03736	0,00561
86,95199	0,77438	0,00101
86,96099	0,84276	0,00073
86,96999	0,87758	0,00061
86,97899	0,90164	0,00077
86,98799	0,91502	0,00078
86,99699	0,92837	0,00065
87,00599	0,93768	0,00070
87,01499	0,94976	0,00092
87,02399	0,95582	0,00078
87,03299	0,96454	0,00058
87,04199	0,96794	0,00073
87,05099	0,97481	0,00061
87,05999	0,97698	0,00101
87,06899	0,97323	0,00086
87,07799	0,96884	0,00073
87,08699	0,96450	0,00059
87,09599	0,95206	0,00080
87,10499	0,94216	0,00073
87,11399	0,93266	0,00078
87,12299	0,91769	0,00056
87,13199	0,89513	0,00067
87,14099	0,86166	0,00061
87,14999	0,80088	0,00048
87,15899	0,04623	0,00438
87,16799	0,04636	0,00419
87,17699	0,04641	0,00419
87,18599	0,04596	0,00427
87,19499	0,04596	0,00489
87,20399	0,04550	0,00447
87,21299	0,04455	0,00502
87,22199	0,04446	0,00513
87,23099	0,04360	0,00519
87,23999	0,04284	0,00509
87,24899	0,04211	0,00498
87,25799	0,04184	0,00487
87,26699	0,03551	0,00436
87,27599	0,04048	0,00399
87,28499	0,03528	0,00445
87,29399	0,03415	0,00478
87,30299	0,03402	0,00487
87,31199	0,03307	0,00536
87,32099	0,03646	0,00492
87,32999	0,03596	0,00489
87,33899	0,03596	0,00450
87,34799	0,03574	0,00486
87,35699	0,03564	0,00489
87,36599	0,03583	0,00479
87,37499	0,03614	0,00503
87,38399	0,03614	0,00439
87,39299	0,20994	0,00460
87,40199	0,81793	0,00101
87,41099	0,87134	0,00059
87,41999	0,89409	0,00089
87,42899	0,91765	0,00092
87,43799	0,93212	0,00066
87,44699	0,93868	0,00069
87,45599	0,95297	0,00090
87,46499	0,96102	0,00061
87,47399	0,96744	0,00063
87,48299	0,97101	0,00077
87,49199	0,97526	0,00083
87,50099	0,97413	0,00095
87,50999	0,97192	0,00059
87,51899	0,96414	0,00056
87,52799	0,95401	0,00073
87,53699	0,94261	0,00053
87,54599	0,93375	0,00087
87,55499	0,91692	0,00045
87,56399	0,88432	0,00070
87,57299	0,85343	0,00087
87,58199	0,72861	0,00162
87,59099	0,04116	0,00485
87,59999	0,04908	0,00724
87,60899	0,00964	0,00597
87,61799	0,04763	0,00838
87,62699	0,04541	0,00932
87,63599	0,00013	0,00413
87,64499	0,04894	0,00749
87,65399	0,04686	0,00864
87,66299	0,04623	0,00910
87,67199	0,04473	0,00984
87,68099	0,04483	0,00981
87,68999	0,04347	0,01021
87,69899	0,03474	0,00253
87,70799	0,03460	0,00288
87,71699	0,03325	0,00415
87,72599	0,03275	0,00542
87,73499	0,03162	0,00562
87,74399	0,03004	0,00721
87,75299	0,03063	0,00704
87,76199	0,02990	0,00732
87,77099	0,02918	0,00754
87,77999	0,02845	0,00811
87,78899	0,02769	0,00845
87,79799	0,02719	0,00846
87,80699	0,02723	0,00830
87,81599	0,02796	0,00829
87,82499	0,03510	0,00252
87,83399	0,03004	0,00760
87,84299	0,74534	0,00077
87,85199	0,84226	0,00061
87,86099	0,88260	0,00069
87,86999	0,90453	0,00087
87,87899	0,92072	0,00056
87,88799	0,93384	0,00080
87,89699	0,94713	0,00073
87,90599	0,95265	0,00093
87,91499	0,96414	0,00048
87,92399	0,97097	0,00089
87,93299	0,97210	0,00045
87,94199	0,97115	0,00057
87,95099	0,97015	0,00069
87,95999	0,96142	0,00069
87,96899	0,95138	0,00066
87,97799	0,94347	0,00072
87,98699	0,92588	0,00083
87,99599	0,91113	0,00092
88,00499	0,88888	0,00061
88,01399	0,85655	0,00071
88,02299	0,64725	0,00374
88,03199	0,03972	0,00782
88,04099	0,03967	0,00860
88,04999	0,04053	0,00800
88,05899	0,04143	0,00936
88,06799	0,04193	0,00960
88,07699	0,04216	0,00966
88,08599	0,03456	0,00269
88,09499	0,03424	0,00279
88,10399	0,03483	0,00280
88,11299	0,03474	0,00282
88,12199	0,03537	0,00303
88,13099	0,03596	0,00319
88,13999	0,03451	0,00261
88,14899	0,03474	0,00311
88,15799	0,03474	0,00311
88,16699	0,03488	0,00330
88,17599	0,03456	0,00288
88,18499	0,03492	0,00342
88,19399	0,03646	0,00423
88,20299	0,04464	0,00927
88,21199	0,03804	0,00502
88,22099	0,03886	0,00733
88,22999	0,04587	0,00925
88,23899	0,04740	0,00821
88,24799	0,04207	0,00993
88,25699	0,04740	0,00834
88,26599	0,04804	0,00795
88,27499	0,04383	0,01021
88,28399	0,04311	0,01048
88,29299	0,39386	0,00986
88,30199	0,82643	0,00057
88,31099	0,87337	0,00075
88,31999	0,90064	0,00083
88,32899	0,91801	0,00063
88,33799	0,92710	0,00076
88,34699	0,94008	0,00082
88,35599	0,94921	0,00063
88,36499	0,95487	0,00090
88,37399	0,96459	0,00056
88,38299	0,96861	0,00061
88,39199	0,96454	0,00081
88,40099	0,96450	0,00066
88,40999	0,95536	0,00078
88,41899	0,94813	0,00073
88,42799	0,93375	0,00072
88,43699	0,92004	0,00067
88,44599	0,89797	0,00094
88,45499	0,86464	0,00080
88,46399	0,76122	0,00090
88,47299	0,01855	0,00935
88,48199	0,01624	0,00888
88,49099	0,01475	0,00818
88,49999	0,01254	0,00690
88,50899	0,01380	0,00752
88,51799	0,01217	0,00674
88,52699	0,01303	0,00738
88,53599	0,01579	0,00879
88,54499	0,01737	0,00960
88,55399	0,01977	0,00936
88,56299	0,02154	0,00949
88,57199	0,02393	0,00970
88,58099	0,02447	0,00963
88,58999	0,02701	0,00857
88,59899	0,03447	0,00261
88,60799	0,03429	0,00317
88,61699	0,03470	0,00370
88,62599	0,03732	0,00515
88,63499	0,04035	0,00854
88,64399	0,04369	0,01044
88,65299	0,04437	0,01059
88,66199	0,03614	0,00344
88,67099	0,03782	0,00446
88,67999	0,03994	0,00683
88,68899	0,04356	0,00959
88,69799	0,04455	0,01017
88,70699	0,04437	0,00966
88,71599	0,04437	0,00979
88,72499	0,04464	0,00977
88,73399	0,04446	0,00939
88,74299	0,04501	0,00969
88,75199	0,04428	0,00985
88,76099	0,04451	0,01011
88,76999	0,77515	0,00111
88,77899	0,85366	0,00080
88,78799	0,89381	0,00067
88,79699	0,91394	0,00069
88,80599	0,92864	0,00095
88,81499	0,94103	0,00081
88,82399	0,94655	0,00079
88,83299	0,95830	0,00073
88,84199	0,96463	0,00068
88,85099	0,96500	0,00073
88,85999	0,96427	0,00088
88,86899	0,95830	0,00068
88,87799	0,95224	0,00110
88,88699	0,94202	0,00079
88,89599	0,93022	0,00094
88,90499	0,91172	0,00081
88,91399	0,88206	0,00078
88,92299	0,84434	0,00079
88,93199	0,12103	0,00359
88,94099	0,04487	0,00543
88,94999	0,04356	0,00505
88,95899	0,04189	0,00449
88,96799	0,04143	0,00433
88,97699	0,04057	0,00437
88,98599	0,03886	0,00462
88,99499	0,03271	0,00600
89,00399	0,03108	0,00531
89,01299	0,02918	0,00582
89,02199	0,02660	0,00543
89,03099	0,02669	0,00509
89,03999	0,02502	0,00580
89,04899	0,02990	0,00559
89,05799	0,02841	0,00512
89,06699	0,02741	0,00503
89,07599	0,02628	0,00569
89,08499	0,02542	0,00587
89,09399	0,02466	0,00645
89,10299	0,02312	0,00662
89,11199	0,02031	0,00816
89,12099	0,01674	0,00963
89,12999	0,01507	0,00979
89,13899	0,01312	0,00999
89,14799	0,01199	0,00973
89,15699	0,01050	0,00937
89,16599	0,00892	0,00918
89,17499	0,00765	0,00791
89,18399	0,00150	0,00263
89,19299	0,00358	0,00617
89,20199	0,00236	0,00504
89,21099	0,00085	0,00456
89,21999	0,00225	0,00542
89,22899	0,00469	0,00817
89,23799	0,00051	0,00256
89,24699	0,16245	0,00227
89,25599	0,82186	0,00061
89,26499	0,87364	0,00068
89,27399	0,89707	0,00090
89,28299	0,91588	0,00099
89,29199	0,92493	0,00056
89,30099	0,93859	0,00070
89,30999	0,94944	0,00081
89,31899	0,95319	0,00052
89,32799	0,95853	0,00078
89,33699	0,96156	0,00083
89,34599	0,95686	0,00079
89,35499	0,94817	0,00078
89,36399	0,93922	0,00081
89,37299	0,92665	0,00089
89,38199	0,91064	0,00056
89,39099	0,88296	0,00078
89,39999	0,83014	0,00085
89,40899	0,00076	0,00449
89,41799	3,67380E-5	0,00407
89,42699	0,00460	0,00422
89,43599	0,00239	0,00478
89,44499	8,19620E-5	0,00477
89,45399	0,00049	0,00503
89,46299	8,19620E-5	0,00436
89,47199	0,00159	0,00540
89,48099	0,00421	0,00595
89,48999	0,00661	0,00553
89,49899	0,00856	0,00564
89,50799	0,00905	0,00602
89,51699	0,01073	0,00659
89,52599	0,01240	0,00679
89,53499	0,01466	0,00831
89,54399	0,01769	0,00906
89,55299	0,03013	0,00717
89,56199	0,03063	0,00616
89,57099	0,02267	0,00983
89,57999	0,03415	0,00344
89,58899	0,03402	0,00282
89,59799	0,03465	0,00247
89,60699	0,03424	0,00258
89,61599	0,02732	0,00892
89,62499	0,02741	0,00807
89,63399	0,02773	0,00834
89,64299	0,02972	0,00729
89,65199	0,03108	0,00641
89,66099	0,03212	0,00558
89,66999	0,03225	0,00539
89,67899	0,03298	0,00434
89,68799	0,03352	0,00369
89,69699	0,03316	0,00444
89,70599	0,03375	0,00325
89,71499	0,03393	0,00297
89,72399	0,03379	0,00295
89,73299	0,03338	0,00308
89,74199	0,09389	0,00343
89,75099	0,82331	0,00061
89,75999	0,88020	0,00088
89,76899	0,91181	0,00083
89,77799	0,92814	0,00067
89,78699	0,94383	0,00089
89,79599	0,95315	0,00069
89,80499	0,96002	0,00058
89,81399	0,95541	0,00092
89,82299	0,95812	0,00060
89,83199	0,94908	0,00088
89,84099	0,94198	0,00094
89,84999	0,93158	0,00080
89,85899	0,91240	0,00078
89,86799	0,88210	0,00073
89,87699	0,81815	0,00087
89,88599	0,06382	0,00887
89,89499	0,02796	0,00792
89,90399	0,02922	0,00734
89,91299	0,03008	0,00699
89,92199	0,03085	0,00683
89,93099	0,03017	0,00656
89,93999	0,03433	0,00321
89,94899	0,03225	0,00533
89,95799	0,03528	0,00261
89,96699	0,03537	0,00295
89,97599	0,03492	0,00305
89,98499	0,03465	0,00273
89,99399	0,03388	0,00270
90,00299	0,03171	0,00586
90,01199	0,03072	0,00699
